Model Number: SPM-002-B   
Serial Number: 70087108
Firmware Version: 004.15.4
Exposure Time: 100000.000000us
Data Taken on: 15-01-2021 17:38:59.132
Wavelength	Amplitude
221.570786	0.000000
221.663406	0.000000
221.756027	0.000000
221.848648	0.000000
221.941269	0.000000
222.033905	0.000000
222.126526	0.000000
222.219162	0.000000
222.311798	0.000000
222.404419	0.000000
222.497055	0.000000
222.589676	0.000000
222.682312	0.000000
222.774933	0.000000
222.867569	0.000000
222.960205	0.000000
223.052841	0.000000
223.145462	0.000000
223.238098	0.000000
223.330734	0.000000
223.423386	0.000000
223.516022	0.000000
223.608658	0.000000
223.701309	0.000000
223.793945	0.000000
223.886581	0.000000
223.979218	0.000000
224.071869	0.000000
224.164505	0.000000
224.257156	0.000000
224.349792	0.000000
224.442444	0.000000
224.535095	0.000000
224.627747	0.000000
224.720398	0.000000
224.813034	0.000000
224.905685	0.000000
224.998337	155.660000
225.090988	155.400000
225.183640	155.280000
225.276291	155.280000
225.368942	155.340000
225.461594	155.960000
225.554245	156.380000
225.646912	156.260000
225.739578	156.640000
225.832230	157.320000
225.924896	156.440000
226.017548	156.620000
226.110199	157.300000
226.202866	156.860000
226.295532	156.680000
226.388184	156.420000
226.480850	155.740000
226.573517	154.880000
226.666168	155.220000
226.758835	155.380000
226.851501	156.420000
226.944183	156.920000
227.036850	156.960000
227.129517	157.020000
227.222183	157.000000
227.314850	156.640000
227.407516	156.800000
227.500198	157.720000
227.592865	157.040000
227.685532	156.640000
227.778214	156.580000
227.870880	156.500000
227.963562	156.560000
228.056229	157.300000
228.148926	157.320000
228.241592	157.980000
228.334274	157.740000
228.426956	157.300000
228.519638	157.200000
228.612305	157.060000
228.704987	156.880000
228.797668	156.900000
228.890350	156.680000
228.983032	155.820000
229.075714	156.440000
229.168396	156.160000
229.261108	155.880000
229.353790	155.760000
229.446472	156.500000
229.539169	156.300000
229.631851	155.740000
229.724533	156.000000
229.817230	156.280000
229.909912	157.040000
230.002609	156.860000
230.095306	156.920000
230.187988	157.080000
230.280685	156.920000
230.373383	155.560000
230.466095	155.460000
230.558792	155.920000
230.651474	155.980000
230.744171	155.840000
230.836868	156.060000
230.929581	156.540000
231.022278	156.380000
231.114975	156.300000
231.207672	156.120000
231.300369	156.580000
231.393082	156.300000
231.485779	156.440000
231.578506	155.920000
231.671204	156.320000
231.763916	156.440000
231.856613	156.700000
231.949326	156.660000
232.042023	156.840000
232.134735	156.840000
232.227448	156.220000
232.320160	156.140000
232.412872	156.040000
232.505585	156.940000
232.598297	157.160000
232.691010	157.000000
232.783722	156.760000
232.876450	157.320000
232.969162	156.780000
233.061874	156.420000
233.154587	156.460000
233.247314	156.680000
233.340027	156.140000
233.432739	156.740000
233.525467	156.520000
233.618179	157.020000
233.710907	156.840000
233.803635	157.020000
233.896347	156.140000
233.989090	157.020000
234.081818	156.680000
234.174545	156.960000
234.267258	156.400000
234.359985	156.900000
234.452713	156.340000
234.545441	156.400000
234.638168	156.020000
234.730896	156.880000
234.823639	156.800000
234.916367	157.080000
235.009094	157.160000
235.101822	157.160000
235.194580	156.740000
235.287308	156.860000
235.380051	156.240000
235.472778	156.600000
235.565521	156.920000
235.658249	156.420000
235.750992	156.140000
235.843719	156.480000
235.936462	156.400000
236.029205	155.920000
236.121948	155.840000
236.214691	156.340000
236.307449	157.120000
236.400192	156.560000
236.492935	156.460000
236.585678	157.240000
236.678421	156.980000
236.771164	156.220000
236.863907	156.980000
236.956665	157.440000
237.049408	158.840000
237.142151	158.440000
237.234909	159.560000
237.327652	159.200000
237.420410	158.940000
237.513153	157.700000
237.605927	157.640000
237.698669	156.700000
237.791428	156.340000
237.884186	156.980000
237.976944	156.220000
238.069702	156.460000
238.162445	155.780000
238.255203	155.700000
238.347961	155.980000
238.440720	156.300000
238.533478	156.080000
238.626266	156.460000
238.719025	157.000000
238.811783	156.360000
238.904541	156.260000
238.997314	156.200000
239.090073	155.580000
239.182831	155.640000
239.275604	156.360000
239.368362	156.140000
239.461136	156.280000
239.553909	156.700000
239.646667	156.400000
239.739441	155.860000
239.832214	156.320000
239.925003	156.280000
240.017761	156.980000
240.110535	157.620000
240.203308	157.080000
240.296082	157.120000
240.388855	157.280000
240.481628	156.880000
240.574417	156.740000
240.667191	156.860000
240.759964	156.460000
240.852737	156.580000
240.945526	156.260000
241.038315	156.080000
241.131088	156.140000
241.223877	156.600000
241.316650	155.800000
241.409439	156.420000
241.502228	155.880000
241.595001	156.300000
241.687790	155.920000
241.780579	156.560000
241.873367	156.500000
241.966141	157.080000
242.058929	156.680000
242.151718	157.080000
242.244507	157.460000
242.337311	156.720000
242.430099	156.920000
242.522903	157.200000
242.615692	156.600000
242.708481	156.220000
242.801270	156.800000
242.894073	156.580000
242.986862	156.640000
243.079651	157.420000
243.172455	157.300000
243.265244	157.360000
243.358063	156.760000
243.450867	157.060000
243.543655	156.680000
243.636459	156.680000
243.729263	156.940000
243.822067	157.560000
243.914856	157.700000
244.007660	157.660000
244.100464	157.620000
244.193268	157.280000
244.286072	157.000000
244.378876	156.180000
244.471680	156.160000
244.564499	156.680000
244.657318	157.220000
244.750122	157.580000
244.842926	157.180000
244.935745	157.520000
245.028549	156.680000
245.121368	155.920000
245.214172	155.620000
245.306992	156.420000
245.399796	155.880000
245.492615	156.540000
245.585434	156.560000
245.678253	156.760000
245.771072	156.680000
245.863892	157.300000
245.956711	157.360000
246.049530	157.100000
246.142349	156.880000
246.235168	156.500000
246.327988	156.740000
246.420807	156.460000
246.513626	156.880000
246.606445	156.420000
246.699280	156.640000
246.792099	156.320000
246.884918	156.140000
246.977753	155.600000
247.070587	155.780000
247.163422	155.680000
247.256241	155.500000
247.349075	155.860000
247.441895	156.160000
247.534729	156.220000
247.627563	156.160000
247.720383	156.680000
247.813217	156.580000
247.906052	156.480000
247.998886	156.700000
248.091736	156.620000
248.184570	156.000000
248.277405	155.840000
248.370239	157.140000
248.463074	157.760000
248.555908	158.200000
248.648743	158.440000
248.741592	158.680000
248.834427	157.580000
248.927261	156.560000
249.020111	157.040000
249.112946	157.360000
249.205795	156.820000
249.298630	156.880000
249.391495	157.240000
249.484344	156.760000
249.577179	156.460000
249.670029	157.100000
249.762878	157.680000
249.855728	157.760000
249.948563	157.600000
250.041412	157.060000
250.134262	156.940000
250.227112	156.840000
250.319962	157.060000
250.412827	157.180000
250.505692	156.820000
250.598541	156.780000
250.691391	156.320000
250.784241	156.120000
250.877106	156.280000
250.969955	156.420000
251.062805	156.800000
251.155670	157.380000
251.248520	156.900000
251.341385	157.060000
251.434235	157.180000
251.527100	156.440000
251.619965	156.000000
251.712814	157.080000
251.805695	156.720000
251.898560	157.100000
251.991425	157.560000
252.084290	157.600000
252.177155	156.460000
252.270020	156.020000
252.362885	155.880000
252.455750	155.960000
252.548615	155.680000
252.641479	155.900000
252.734360	155.880000
252.827240	155.740000
252.920105	155.640000
253.012970	155.660000
253.105850	155.480000
253.198715	155.640000
253.291595	155.840000
253.384460	155.620000
253.477341	155.480000
253.570221	155.940000
253.663086	155.500000
253.755966	156.200000
253.848846	156.480000
253.941727	157.020000
254.034592	156.820000
254.127472	156.860000
254.220367	156.740000
254.313248	156.760000
254.406128	156.300000
254.499008	156.740000
254.591904	157.880000
254.684784	158.060000
254.777664	158.100000
254.870544	157.980000
254.963440	157.540000
255.056335	156.960000
255.149216	156.320000
255.242111	156.580000
255.334991	156.960000
255.427887	157.380000
255.520767	157.880000
255.613663	158.180000
255.706558	157.440000
255.799438	157.180000
255.892334	156.580000
255.985229	155.940000
256.078125	155.680000
256.171021	155.600000
256.263916	156.040000
256.356812	156.620000
256.449707	156.920000
256.542603	156.480000
256.635498	157.220000
256.728394	157.100000
256.821289	156.480000
256.914215	156.720000
257.007080	157.160000
257.100006	157.100000
257.192932	157.320000
257.285828	157.860000
257.378723	157.560000
257.471619	157.440000
257.564545	156.600000
257.657440	156.420000
257.750336	156.740000
257.843262	156.360000
257.936157	157.660000
258.029053	158.300000
258.121979	158.220000
258.214874	157.580000
258.307800	157.560000
258.400696	156.040000
258.493622	156.280000
258.586517	155.600000
258.679443	156.300000
258.772339	155.960000
258.865265	156.200000
258.958160	155.640000
259.051086	156.780000
259.144012	156.380000
259.236938	157.280000
259.329834	157.340000
259.422791	157.180000
259.515717	156.260000
259.608612	155.840000
259.701538	155.880000
259.794464	155.820000
259.887390	155.960000
259.980316	155.960000
260.073212	155.880000
260.166138	154.840000
260.259064	155.220000
260.351990	155.840000
260.444916	156.080000
260.537842	156.820000
260.630768	157.740000
260.723694	157.580000
260.816620	157.060000
260.909546	157.060000
261.002472	156.460000
261.095398	155.940000
261.188354	155.760000
261.281281	155.620000
261.374207	155.580000
261.467133	156.120000
261.560089	156.320000
261.653015	156.040000
261.745972	156.660000
261.838867	157.100000
261.931824	157.540000
262.024780	157.200000
262.117706	157.860000
262.210663	157.600000
262.303589	157.480000
262.396515	156.720000
262.489471	157.640000
262.582397	157.200000
262.675354	156.960000
262.768280	156.820000
262.861237	157.060000
262.954163	157.120000
263.047119	157.220000
263.140045	157.000000
263.233002	156.960000
263.325958	156.960000
263.418884	156.060000
263.511841	155.860000
263.604797	156.120000
263.697723	156.120000
263.790680	155.840000
263.883636	156.760000
263.976593	156.720000
264.069550	156.800000
264.162476	156.340000
264.255463	156.480000
264.348419	155.980000
264.441376	156.460000
264.534332	156.140000
264.627289	156.600000
264.720245	157.200000
264.813202	156.820000
264.906158	156.720000
264.999115	157.320000
265.092072	157.380000
265.185028	157.280000
265.277985	157.340000
265.370941	157.220000
265.463898	156.600000
265.556854	156.400000
265.649811	155.760000
265.742798	156.060000
265.835754	156.060000
265.928711	157.080000
266.021667	157.380000
266.114655	157.540000
266.207611	157.700000
266.300568	157.280000
266.393585	156.020000
266.486511	156.040000
266.579498	155.280000
266.672485	154.900000
266.765442	154.880000
266.858429	155.900000
266.951385	155.340000
267.044342	155.740000
267.137329	155.880000
267.230316	156.380000
267.323273	155.760000
267.416260	156.780000
267.509216	156.860000
267.602203	157.140000
267.695160	157.660000
267.788147	157.720000
267.881134	156.640000
267.974091	156.620000
268.067078	156.140000
268.160065	155.420000
268.253052	155.320000
268.346008	155.820000
268.438995	155.860000
268.531982	156.220000
268.624969	155.940000
268.717987	156.300000
268.810944	155.960000
268.903961	156.180000
268.996948	155.800000
269.089905	156.540000
269.182892	156.560000
269.275879	157.040000
269.368866	156.300000
269.461853	156.460000
269.554871	156.140000
269.647858	156.120000
269.740845	156.400000
269.833832	157.240000
269.926819	156.880000
270.019806	157.000000
270.112793	156.560000
270.205811	156.260000
270.298798	155.660000
270.391785	156.220000
270.484772	155.980000
270.577789	156.300000
270.670776	156.100000
270.763763	156.120000
270.856750	156.320000
270.949768	155.980000
271.042786	155.900000
271.135773	156.020000
271.228790	156.820000
271.321808	156.240000
271.414795	156.100000
271.507782	155.660000
271.600800	155.320000
271.693817	155.100000
271.786804	155.640000
271.879822	156.180000
271.972809	156.440000
272.065826	156.960000
272.158844	156.440000
272.251831	156.700000
272.344849	156.460000
272.437866	156.240000
272.530853	155.980000
272.623871	156.360000
272.716888	155.060000
272.809906	155.580000
272.902893	155.800000
272.995911	155.460000
273.088928	155.520000
273.181946	156.200000
273.274963	155.600000
273.367981	155.280000
273.460999	155.640000
273.554047	156.300000
273.647003	156.840000
273.740051	157.080000
273.833069	157.800000
273.926086	157.900000
274.019135	157.160000
274.112152	156.880000
274.205170	157.000000
274.298187	156.780000
274.391205	156.520000
274.484222	156.720000
274.577240	156.660000
274.670258	156.380000
274.763306	156.360000
274.856323	156.760000
274.949341	156.560000
275.042358	156.880000
275.135406	157.060000
275.228424	156.940000
275.321442	156.520000
275.414490	156.320000
275.507507	156.440000
275.600525	156.800000
275.693573	157.020000
275.786591	156.840000
275.879669	156.880000
275.972656	156.680000
276.065735	156.420000
276.158752	156.580000
276.251801	157.440000
276.344818	157.920000
276.437866	157.840000
276.530884	157.660000
276.623932	156.860000
276.716980	156.920000
276.809998	156.920000
276.903046	156.740000
276.996094	157.480000
277.089111	158.220000
277.182159	158.360000
277.275208	158.000000
277.368256	158.280000
277.461304	158.100000
277.554321	157.640000
277.647369	157.420000
277.740417	157.380000
277.833466	156.740000
277.926514	156.320000
278.019562	156.960000
278.112610	156.260000
278.205688	156.540000
278.298706	156.940000
278.391785	156.860000
278.484833	156.080000
278.577881	156.180000
278.670929	156.320000
278.763977	156.340000
278.857025	156.980000
278.950073	157.080000
279.043121	156.640000
279.136169	156.220000
279.229248	155.940000
279.322296	155.600000
279.415344	155.560000
279.508392	156.000000
279.601440	156.200000
279.694519	156.360000
279.787567	156.360000
279.880615	156.040000
279.973694	155.860000
280.066742	155.760000
280.159790	155.840000
280.252869	155.240000
280.345917	155.880000
280.438995	156.060000
280.532074	156.240000
280.625122	156.500000
280.718201	157.780000
280.811279	157.440000
280.904327	157.320000
280.997406	157.480000
281.090454	157.340000
281.183533	156.460000
281.276581	156.560000
281.369659	156.420000
281.462738	156.380000
281.555786	156.360000
281.648865	156.540000
281.741943	156.440000
281.835022	157.280000
281.928070	156.980000
282.021149	156.680000
282.114227	156.440000
282.207306	156.700000
282.300385	156.400000
282.393433	156.660000
282.486511	156.900000
282.579590	157.260000
282.672668	157.420000
282.765747	157.000000
282.858856	156.740000
282.951904	156.820000
283.045013	156.900000
283.138062	157.160000
283.231171	157.600000
283.324249	157.680000
283.417328	157.620000
283.510406	157.280000
283.603485	156.920000
283.696564	156.940000
283.789642	156.960000
283.882751	156.680000
283.975830	157.100000
284.068909	156.620000
284.161987	156.900000
284.255066	156.380000
284.348175	156.660000
284.441254	156.380000
284.534332	157.140000
284.627441	156.560000
284.720520	156.460000
284.813599	156.500000
284.906708	156.580000
284.999786	155.840000
285.092896	155.560000
285.185974	156.920000
285.279053	156.300000
285.372192	156.380000
285.465240	157.180000
285.558380	157.180000
285.651459	156.180000
285.744568	157.320000
285.837677	156.760000
285.930756	156.500000
286.023865	157.200000
286.116943	156.880000
286.210052	156.680000
286.303162	156.740000
286.396240	156.780000
286.489349	155.960000
286.582458	156.740000
286.675568	156.160000
286.768646	156.360000
286.861755	156.360000
286.954865	157.300000
287.047974	156.560000
287.141083	156.560000
287.234161	156.300000
287.327271	156.040000
287.420380	156.180000
287.513519	156.300000
287.606598	156.520000
287.699738	156.500000
287.792816	156.780000
287.885956	156.380000
287.979034	156.300000
288.072174	156.440000
288.165283	156.500000
288.258392	156.840000
288.351501	156.360000
288.444611	156.840000
288.537720	157.280000
288.630859	157.200000
288.723969	156.980000
288.817078	157.540000
288.910187	157.340000
289.003296	156.700000
289.096436	156.720000
289.189545	156.520000
289.282654	155.580000
289.375763	156.020000
289.468903	156.160000
289.562012	156.700000
289.655121	156.340000
289.748260	156.880000
289.841400	156.960000
289.934509	156.520000
290.027649	156.400000
290.120728	156.660000
290.213898	156.900000
290.306976	156.520000
290.400146	157.180000
290.493256	156.500000
290.586395	156.500000
290.679535	156.540000
290.772644	156.400000
290.865784	155.460000
290.958893	155.780000
291.052032	155.660000
291.145172	155.680000
291.238281	155.180000
291.331421	155.460000
291.424561	156.020000
291.517670	155.880000
291.610809	155.640000
291.703949	156.060000
291.797089	156.720000
291.890228	156.160000
291.983337	156.300000
292.076477	156.200000
292.169617	156.820000
292.262756	156.540000
292.355927	156.540000
292.449036	156.480000
292.542206	156.800000
292.635315	156.320000
292.728485	156.580000
292.821625	156.240000
292.914764	157.340000
293.007904	157.200000
293.101044	157.300000
293.194183	157.000000
293.287323	157.320000
293.380463	156.640000
293.473602	156.180000
293.566742	156.480000
293.659882	157.080000
293.753021	157.240000
293.846191	157.140000
293.939331	157.460000
294.032471	157.040000
294.125610	156.500000
294.218781	156.900000
294.311920	157.200000
294.405060	157.380000
294.498230	157.320000
294.591370	157.400000
294.684540	156.660000
294.777679	155.900000
294.870850	156.060000
294.963959	156.200000
295.057159	155.660000
295.150299	156.020000
295.243469	156.380000
295.336609	155.680000
295.429779	155.600000
295.522919	156.480000
295.616089	156.600000
295.709229	157.100000
295.802399	157.620000
295.895569	157.460000
295.988708	156.860000
296.081879	156.640000
296.175018	155.960000
296.268188	156.040000
296.361359	156.660000
296.454529	157.060000
296.547668	157.260000
296.640839	157.660000
296.734009	157.280000
296.827179	157.220000
296.920319	157.160000
297.013519	156.560000
297.106659	156.560000
297.199860	156.560000
297.292999	156.140000
297.386200	155.460000
297.479309	155.700000
297.572510	155.520000
297.665680	155.140000
297.758850	155.240000
297.852020	155.540000
297.945190	155.680000
298.038361	155.600000
298.131531	156.940000
298.224701	156.940000
298.317871	156.780000
298.411072	156.420000
298.504242	156.140000
298.597412	155.400000
298.690582	155.440000
298.783752	155.440000
298.876923	156.040000
298.970093	156.020000
299.063293	156.480000
299.156464	156.820000
299.249634	157.420000
299.342834	157.400000
299.436005	157.800000
299.529205	157.340000
299.622345	157.060000
299.715576	156.200000
299.808716	155.940000
299.901917	156.080000
299.995117	156.620000
300.088287	156.740000
300.181488	156.980000
300.274658	157.040000
300.367828	156.820000
300.461029	156.520000
300.554199	156.880000
300.647400	157.220000
300.740601	157.400000
300.833771	157.520000
300.926971	157.880000
301.020142	157.320000
301.113342	156.960000
301.206512	156.800000
301.299713	157.100000
301.392914	156.580000
301.486084	156.860000
301.579285	156.820000
301.672516	157.200000
301.765686	156.580000
301.858887	156.380000
301.952057	156.240000
302.045288	156.520000
302.138458	156.240000
302.231659	156.100000
302.324860	156.180000
302.418060	155.860000
302.511261	155.820000
302.604462	155.960000
302.697662	156.140000
302.790863	156.140000
302.884064	155.800000
302.977264	156.060000
303.070465	156.200000
303.163666	157.000000
303.256866	157.480000
303.350067	157.760000
303.443268	157.660000
303.536469	157.820000
303.629669	157.020000
303.722870	156.800000
303.816071	156.800000
303.909271	156.740000
304.002472	155.920000
304.095673	155.840000
304.188934	155.200000
304.282104	156.080000
304.375336	155.780000
304.468506	155.740000
304.561768	155.620000
304.654968	156.260000
304.748169	155.660000
304.841370	155.700000
304.934601	156.300000
305.027802	155.800000
305.121002	155.380000
305.214233	155.480000
305.307434	155.720000
305.400665	155.920000
305.493866	156.480000
305.587097	156.700000
305.680298	156.080000
305.773499	156.260000
305.866730	155.860000
305.959930	156.500000
306.053162	156.700000
306.146393	156.940000
306.239594	156.220000
306.332825	156.320000
306.426025	156.320000
306.519287	156.180000
306.612488	156.500000
306.705719	156.880000
306.798920	156.880000
306.892181	156.320000
306.985352	155.780000
307.078613	155.000000
307.171844	155.420000
307.265045	155.160000
307.358276	154.860000
307.451508	155.520000
307.544739	156.580000
307.637970	155.860000
307.731201	156.060000
307.824402	157.040000
307.917633	157.160000
308.010864	157.520000
308.104095	158.380000
308.197327	158.220000
308.290558	157.840000
308.383789	157.300000
308.477020	156.560000
308.570251	155.380000
308.663483	155.280000
308.756714	155.060000
308.849976	155.140000
308.943176	155.440000
309.036438	155.600000
309.129639	155.420000
309.222900	155.460000
309.316101	155.400000
309.409393	154.960000
309.502625	155.140000
309.595856	155.520000
309.689087	155.440000
309.782318	155.520000
309.875580	155.780000
309.968811	155.880000
310.062042	155.500000
310.155273	155.640000
310.248535	156.240000
310.341766	156.420000
310.434998	156.260000
310.528259	156.440000
310.621490	156.640000
310.714722	155.900000
310.807983	155.260000
310.901215	155.400000
310.994476	155.720000
311.087708	155.180000
311.181000	155.360000
311.274200	155.220000
311.367462	155.280000
311.460693	154.920000
311.553986	156.100000
311.647186	156.700000
311.740479	157.700000
311.833710	157.420000
311.926971	157.400000
312.020203	156.340000
312.113464	155.780000
312.206726	154.680000
312.299957	155.280000
312.393219	155.900000
312.486481	156.340000
312.579712	156.100000
312.672974	156.620000
312.766235	156.220000
312.859497	155.620000
312.952759	155.440000
313.045990	156.500000
313.139252	155.940000
313.232513	156.440000
313.325775	156.560000
313.419037	156.380000
313.512299	155.440000
313.605530	156.000000
313.698822	156.020000
313.792053	156.420000
313.885345	156.040000
313.978577	156.440000
314.071869	156.180000
314.165131	155.920000
314.258392	155.880000
314.351654	156.220000
314.444916	155.400000
314.538177	156.040000
314.631439	156.340000
314.724701	156.040000
314.817993	155.900000
314.911255	156.480000
315.004517	156.000000
315.097778	155.800000
315.191040	156.500000
315.284302	156.960000
315.377594	156.720000
315.470856	156.700000
315.564117	156.160000
315.657379	155.300000
315.750671	154.740000
315.843933	155.520000
315.937195	155.140000
316.030518	155.060000
316.123749	155.100000
316.217041	156.160000
316.310303	155.420000
316.403595	155.720000
316.496857	156.140000
316.590149	156.560000
316.683411	155.580000
316.776703	155.720000
316.869965	156.000000
316.963257	155.540000
317.056519	154.740000
317.149811	154.780000
317.243073	154.540000
317.336365	154.640000
317.429626	155.320000
317.522919	155.940000
317.616180	156.300000
317.709473	156.180000
317.802765	155.740000
317.896027	155.500000
317.989319	155.880000
318.082611	155.380000
318.175873	155.620000
318.269165	155.900000
318.362488	155.800000
318.455750	155.420000
318.549042	156.100000
318.642303	156.520000
318.735626	156.100000
318.828888	156.500000
318.922211	155.920000
319.015472	156.320000
319.108765	155.480000
319.202057	155.100000
319.295349	155.120000
319.388641	155.420000
319.481934	154.800000
319.575226	154.980000
319.668518	155.720000
319.761810	155.760000
319.855103	155.840000
319.948395	155.940000
320.041687	156.120000
320.134979	156.260000
320.228271	155.780000
320.321564	155.540000
320.414856	155.540000
320.508148	155.240000
320.601440	154.840000
320.694763	154.940000
320.788025	156.040000
320.881348	155.960000
320.974640	156.220000
321.067963	155.660000
321.161224	155.760000
321.254547	154.720000
321.347839	155.180000
321.441162	154.500000
321.534454	155.060000
321.627747	154.880000
321.721069	155.580000
321.814362	155.640000
321.907654	156.500000
322.000946	156.520000
322.094269	157.180000
322.187561	156.920000
322.280884	156.880000
322.374176	156.500000
322.467468	157.080000
322.560791	156.940000
322.654083	157.260000
322.747406	157.340000
322.840698	157.920000
322.934021	158.100000
323.027344	158.200000
323.120636	157.840000
323.213959	157.680000
323.307251	157.040000
323.400574	156.580000
323.493866	156.120000
323.587219	156.160000
323.680511	156.460000
323.773834	156.780000
323.867157	156.560000
323.960449	156.700000
324.053772	156.360000
324.147095	155.980000
324.240387	156.360000
324.333710	156.780000
324.427032	156.640000
324.520355	156.880000
324.613647	156.420000
324.706970	156.260000
324.800293	156.020000
324.893616	156.580000
324.986938	156.800000
325.080231	156.960000
325.173553	157.260000
325.266876	157.680000
325.360199	157.220000
325.453522	156.780000
325.546875	156.380000
325.640167	156.460000
325.733521	156.640000
325.826813	157.460000
325.920166	157.520000
326.013489	157.820000
326.106812	156.680000
326.200134	155.880000
326.293457	154.660000
326.386780	154.560000
326.480103	154.400000
326.573425	154.620000
326.666748	154.840000
326.760071	155.600000
326.853424	155.800000
326.946747	156.060000
327.040070	157.000000
327.133392	156.660000
327.226715	155.960000
327.320068	155.640000
327.413391	156.240000
327.506714	155.200000
327.600037	155.260000
327.693390	155.460000
327.786713	155.620000
327.880066	155.300000
327.973358	155.960000
328.066742	156.660000
328.160034	157.380000
328.253418	157.840000
328.346710	157.440000
328.440063	157.060000
328.533417	156.460000
328.626740	156.380000
328.720093	155.940000
328.813416	156.040000
328.906769	156.100000
329.000092	156.440000
329.093445	156.220000
329.186768	155.840000
329.280121	156.680000
329.373444	157.160000
329.466797	157.180000
329.560120	157.040000
329.653473	157.420000
329.746796	156.620000
329.840149	156.420000
329.933502	156.200000
330.026825	156.160000
330.120178	156.220000
330.213562	156.060000
330.306854	155.920000
330.400238	156.080000
330.493561	155.920000
330.586945	156.220000
330.680237	156.680000
330.773621	156.940000
330.866974	156.880000
330.960327	157.120000
331.053680	157.040000
331.147003	157.180000
331.240356	157.360000
331.333710	157.420000
331.427063	156.920000
331.520416	156.740000
331.613770	156.160000
331.707123	156.020000
331.800476	156.140000
331.893829	157.580000
331.987152	157.980000
332.080505	158.280000
332.173859	158.020000
332.267212	157.280000
332.360565	156.400000
332.453918	155.860000
332.547333	155.540000
332.640656	155.740000
332.734039	156.340000
332.827362	156.040000
332.920746	156.500000
333.014069	156.920000
333.107452	157.360000
333.200806	157.620000
333.294159	157.640000
333.387543	157.120000
333.480896	156.400000
333.574249	155.700000
333.667603	155.300000
333.760956	155.560000
333.854340	155.540000
333.947693	155.960000
334.041046	155.920000
334.134430	156.540000
334.227783	156.200000
334.321136	156.220000
334.414520	155.860000
334.507874	156.320000
334.601227	155.760000
334.694611	156.040000
334.787964	156.220000
334.881348	156.760000
334.974701	156.520000
335.068085	156.220000
335.161438	156.440000
335.254822	156.260000
335.348175	156.320000
335.441559	155.760000
335.534943	156.400000
335.628296	156.000000
335.721680	156.040000
335.815033	156.100000
335.908417	156.820000
336.001770	156.860000
336.095154	156.860000
336.188538	156.640000
336.281891	155.860000
336.375275	155.120000
336.468658	154.720000
336.562012	154.580000
336.655396	155.360000
336.748779	156.260000
336.842133	156.780000
336.935516	156.980000
337.028900	156.860000
337.122284	156.740000
337.215637	156.760000
337.309021	156.540000
337.402435	156.100000
337.495789	156.060000
337.589203	155.760000
337.682526	155.280000
337.775940	155.940000
337.869324	156.080000
337.962708	156.040000
338.056091	156.620000
338.149475	156.160000
338.242859	155.840000
338.336243	155.780000
338.429626	156.280000
338.523010	155.760000
338.616394	156.040000
338.709778	155.680000
338.803162	156.040000
338.896545	155.980000
338.989929	155.620000
339.083313	156.060000
339.176697	156.440000
339.270081	156.060000
339.363464	156.200000
339.456848	156.760000
339.550232	155.980000
339.643616	155.440000
339.737030	155.480000
339.830383	154.900000
339.923828	155.020000
340.017181	155.700000
340.110596	156.100000
340.203949	155.940000
340.297363	155.840000
340.390778	155.520000
340.484161	155.300000
340.577545	155.520000
340.670959	155.740000
340.764343	156.280000
340.857727	156.360000
340.951111	155.580000
341.044525	155.240000
341.137909	154.940000
341.231293	154.680000
341.324707	154.400000
341.418091	155.780000
341.511505	156.240000
341.604889	156.880000
341.698303	156.960000
341.791687	157.200000
341.885071	156.780000
341.978485	155.980000
342.071899	155.980000
342.165283	156.240000
342.258698	156.380000
342.352081	156.520000
342.445496	157.580000
342.538879	157.580000
342.632324	157.160000
342.725708	157.020000
342.819122	156.400000
342.912506	155.860000
343.005920	155.560000
343.099335	156.400000
343.192719	156.340000
343.286133	156.620000
343.379547	156.680000
343.472931	156.700000
343.566345	155.900000
343.659760	156.140000
343.753143	155.860000
343.846558	155.520000
343.939972	155.360000
344.033386	155.760000
344.126770	155.160000
344.220184	155.540000
344.313599	155.980000
344.407043	156.220000
344.500427	156.020000
344.593872	156.780000
344.687225	156.340000
344.780670	155.880000
344.874054	155.700000
344.967499	156.080000
345.060913	156.060000
345.154327	156.240000
345.247742	156.100000
345.341156	156.120000
345.434570	155.580000
345.527985	155.140000
345.621399	155.480000
345.714813	155.460000
345.808228	155.580000
345.901642	155.580000
345.995056	155.460000
346.088470	155.420000
346.181885	155.940000
346.275299	155.300000
346.368713	154.820000
346.462128	154.900000
346.555573	154.760000
346.648987	154.680000
346.742401	155.040000
346.835815	156.100000
346.929260	155.940000
347.022644	155.940000
347.116119	156.120000
347.209503	156.660000
347.302948	157.340000
347.396362	157.760000
347.489807	157.840000
347.583221	158.440000
347.676636	158.140000
347.770050	156.800000
347.863495	156.440000
347.956909	156.500000
348.050323	155.520000
348.143768	155.400000
348.237183	155.040000
348.330597	155.740000
348.424042	155.960000
348.517456	156.220000
348.610901	156.480000
348.704315	156.900000
348.797760	155.900000
348.891174	155.080000
348.984619	154.760000
349.078033	155.180000
349.171448	155.920000
349.264923	156.200000
349.358337	156.680000
349.451782	156.840000
349.545197	156.040000
349.638641	155.260000
349.732086	155.020000
349.825500	155.340000
349.918945	155.100000
350.012390	155.640000
350.105804	156.400000
350.199249	156.660000
350.292664	156.880000
350.386108	157.140000
350.479553	157.300000
350.572968	156.900000
350.666412	157.200000
350.759857	156.920000
350.853302	157.420000
350.946716	156.880000
351.040161	156.980000
351.133606	156.880000
351.227081	156.660000
351.320465	157.180000
351.413940	157.380000
351.507355	157.340000
351.600830	157.300000
351.694244	157.060000
351.787720	156.340000
351.881104	156.100000
351.974579	156.020000
352.067993	156.600000
352.161469	156.820000
352.254883	156.440000
352.348358	156.740000
352.441803	156.340000
352.535248	155.880000
352.628693	156.040000
352.722137	156.140000
352.815582	156.320000
352.909027	156.720000
353.002472	156.500000
353.095917	156.300000
353.189362	156.640000
353.282806	156.140000
353.376251	155.760000
353.469696	155.640000
353.563141	156.140000
353.656586	155.600000
353.750061	155.440000
353.843475	155.640000
353.936981	156.420000
354.030396	155.840000
354.123871	156.140000
354.217285	157.080000
354.310760	157.260000
354.404175	156.680000
354.497681	156.320000
354.591095	156.000000
354.684570	154.860000
354.777985	154.520000
354.871490	154.220000
354.964935	154.920000
355.058380	155.420000
355.151855	155.460000
355.245300	156.160000
355.338745	156.820000
355.432220	157.020000
355.525665	156.040000
355.619110	156.620000
355.712585	156.100000
355.806030	155.720000
355.899475	155.000000
355.992950	155.800000
356.086426	155.900000
356.179871	155.940000
356.273346	155.940000
356.366791	156.340000
356.460266	156.680000
356.553711	156.140000
356.647186	156.440000
356.740631	156.360000
356.834106	156.160000
356.927551	156.040000
357.021027	156.220000
357.114471	156.020000
357.207947	156.040000
357.301422	156.560000
357.394867	156.560000
357.488342	157.060000
357.581818	157.040000
357.675262	157.400000
357.768738	156.860000
357.862213	156.060000
357.955658	156.060000
358.049133	155.880000
358.142609	155.940000
358.236053	156.100000
358.329529	156.620000
358.423035	156.600000
358.516449	156.500000
358.609955	156.700000
358.703400	157.060000
358.796906	157.180000
358.890350	156.720000
358.983826	156.960000
359.077271	156.220000
359.170776	155.820000
359.264221	155.340000
359.357727	155.560000
359.451172	155.900000
359.544647	156.380000
359.638123	156.460000
359.731598	156.900000
359.825073	157.080000
359.918549	156.860000
360.012024	156.600000
360.105499	156.140000
360.198975	156.060000
360.292450	156.040000
360.385925	156.020000
360.479401	155.760000
360.572876	156.140000
360.666351	156.580000
360.759857	156.400000
360.853302	156.180000
360.946808	155.900000
361.040253	155.920000
361.133759	155.420000
361.227203	155.580000
361.320709	155.540000
361.414154	156.180000
361.507660	156.480000
361.601105	157.180000
361.694641	157.660000
361.788086	157.800000
361.881592	158.060000
361.975067	157.600000
362.068542	157.560000
362.162018	157.220000
362.255524	156.920000
362.348999	156.700000
362.442474	157.140000
362.535950	156.220000
362.629456	155.840000
362.722931	155.980000
362.816406	156.220000
362.909882	156.580000
363.003387	156.880000
363.096863	157.640000
363.190338	157.500000
363.283875	157.280000
363.377319	156.680000
363.470825	157.280000
363.564301	156.440000
363.657806	156.940000
363.751282	156.420000
363.844788	157.500000
363.938232	156.640000
364.031769	157.480000
364.125214	157.620000
364.218750	158.440000
364.312225	156.800000
364.405731	157.080000
364.499207	156.260000
364.592712	155.680000
364.686188	155.600000
364.779694	156.160000
364.873169	155.840000
364.966675	155.800000
365.060150	155.640000
365.153656	155.640000
365.247131	155.920000
365.340637	156.360000
365.434143	156.900000
365.527618	157.300000
365.621155	156.500000
365.714600	156.120000
365.808136	156.300000
365.901611	155.520000
365.995117	155.120000
366.088593	155.520000
366.182129	155.520000
366.275604	155.440000
366.369110	155.660000
366.462585	155.780000
366.556122	156.300000
366.649567	156.420000
366.743103	156.580000
366.836609	156.440000
366.930115	157.000000
367.023590	156.960000
367.117096	156.660000
367.210602	156.500000
367.304108	157.300000
367.397614	157.320000
367.491119	157.360000
367.584595	157.780000
367.678101	157.840000
367.771606	157.260000
367.865112	156.860000
367.958649	156.200000
368.052124	155.780000
368.145660	155.500000
368.239136	156.320000
368.332672	156.320000
368.426147	156.560000
368.519684	156.740000
368.613159	157.160000
368.706696	156.520000
368.800171	156.480000
368.893707	156.580000
368.987183	156.400000
369.080719	156.320000
369.174225	156.240000
369.267731	156.340000
369.361237	156.160000
369.454742	156.360000
369.548248	156.800000
369.641754	156.460000
369.735260	156.500000
369.828766	155.820000
369.922272	156.380000
370.015808	155.480000
370.109314	155.400000
370.202820	155.200000
370.296356	156.420000
370.389832	155.880000
370.483368	155.680000
370.576874	155.800000
370.670410	156.220000
370.763885	155.300000
370.857422	155.400000
370.950928	155.520000
371.044464	156.580000
371.137939	156.360000
371.231476	156.880000
371.324982	157.520000
371.418518	158.080000
371.512024	157.400000
371.605560	157.300000
371.699066	157.480000
371.792572	156.680000
371.886108	156.700000
371.979614	156.720000
372.073120	157.060000
372.166656	156.720000
372.260162	156.880000
372.353668	156.280000
372.447205	155.800000
372.540710	155.700000
372.634277	155.560000
372.727753	155.440000
372.821320	155.980000
372.914795	156.260000
373.008362	156.240000
373.101837	156.640000
373.195404	156.640000
373.288879	156.500000
373.382446	157.040000
373.475922	156.920000
373.569489	157.500000
373.662964	157.920000
373.756531	157.920000
373.850037	157.740000
373.943573	157.480000
374.037109	155.920000
374.130615	155.860000
374.224152	155.680000
374.317657	155.120000
374.411194	156.180000
374.504730	156.740000
374.598236	156.340000
374.691772	156.380000
374.785309	156.820000
374.878815	155.540000
374.972351	155.940000
375.065887	156.320000
375.159454	157.000000
375.252930	156.700000
375.346497	157.460000
375.440002	157.780000
375.533569	157.460000
375.627045	156.620000
375.720612	156.840000
375.814117	156.860000
375.907684	156.180000
376.001160	156.020000
376.094727	155.540000
376.188232	156.180000
376.281799	156.200000
376.375336	156.400000
376.468872	157.300000
376.562408	158.000000
376.655914	157.180000
376.749451	157.280000
376.842987	157.460000
376.936523	156.840000
377.030060	156.520000
377.123596	156.860000
377.217133	155.980000
377.310669	155.840000
377.404205	156.080000
377.497772	156.800000
377.591278	156.720000
377.684845	157.800000
377.778351	157.960000
377.871918	157.420000
377.965424	156.440000
378.058990	156.100000
378.152496	155.780000
378.246063	155.540000
378.339569	156.100000
378.433136	156.500000
378.526642	156.800000
378.620209	156.480000
378.713745	156.600000
378.807312	157.240000
378.900848	157.260000
378.994385	157.620000
379.087921	157.120000
379.181458	157.280000
379.274994	156.040000
379.368530	155.880000
379.462097	155.640000
379.555634	156.340000
379.649170	155.640000
379.742706	155.820000
379.836273	156.120000
379.929810	155.900000
380.023376	155.600000
380.116882	155.680000
380.210449	155.620000
380.303986	155.340000
380.397552	154.860000
380.491058	154.860000
380.584656	154.800000
380.678162	155.180000
380.771729	155.420000
380.865265	156.420000
380.958832	156.640000
381.052368	157.180000
381.145935	157.700000
381.239471	158.100000
381.333008	157.720000
381.426575	157.440000
381.520111	157.780000
381.613647	157.520000
381.707214	157.040000
381.800751	156.500000
381.894318	156.680000
381.987854	155.720000
382.081421	155.260000
382.174988	155.540000
382.268524	155.520000
382.362091	155.560000
382.455627	156.700000
382.549194	156.580000
382.642731	155.880000
382.736298	156.160000
382.829834	156.060000
382.923401	156.360000
383.016937	156.420000
383.110504	156.920000
383.204041	157.120000
383.297607	157.620000
383.391174	156.400000
383.484741	157.380000
383.578278	157.000000
383.671844	156.320000
383.765411	155.520000
383.858948	156.120000
383.952515	155.500000
384.046051	156.060000
384.139618	156.840000
384.233185	157.140000
384.326721	157.100000
384.420288	157.500000
384.513855	157.220000
384.607422	157.540000
384.700989	157.900000
384.794525	157.420000
384.888123	157.080000
384.981659	157.160000
385.075226	156.440000
385.168762	156.080000
385.262360	156.160000
385.355896	155.580000
385.449463	155.480000
385.542999	155.360000
385.636597	156.000000
385.730164	156.300000
385.823730	156.220000
385.917267	156.080000
386.010834	156.440000
386.104401	156.280000
386.197968	156.700000
386.291534	157.140000
386.385101	157.320000
386.478668	157.520000
386.572235	157.400000
386.665802	156.580000
386.759338	156.080000
386.852905	155.920000
386.946472	155.460000
387.040070	155.140000
387.133606	155.580000
387.227203	155.800000
387.320740	156.220000
387.414337	156.140000
387.507874	156.140000
387.601471	156.040000
387.695007	155.820000
387.788605	155.280000
387.882141	155.520000
387.975739	155.520000
388.069275	155.400000
388.162872	155.920000
388.256439	156.180000
388.350037	155.880000
388.443604	155.860000
388.537170	155.720000
388.630737	156.200000
388.724304	156.540000
388.817871	156.860000
388.911438	156.920000
389.005005	157.380000
389.098602	157.140000
389.192169	156.420000
389.285736	156.700000
389.379333	156.860000
389.472870	156.180000
389.566467	156.240000
389.660034	156.700000
389.753632	155.960000
389.847168	156.140000
389.940765	156.580000
390.034332	156.680000
390.127930	156.040000
390.221466	156.280000
390.315063	155.740000
390.408630	155.060000
390.502228	154.120000
390.595795	154.620000
390.689362	154.740000
390.782959	155.220000
390.876526	155.800000
390.970093	155.840000
391.063690	156.240000
391.157257	156.380000
391.250824	156.500000
391.344421	156.400000
391.437988	157.120000
391.531555	156.800000
391.625153	156.900000
391.718750	157.120000
391.812317	157.100000
391.905914	156.340000
391.999481	156.420000
392.093079	156.200000
392.186615	156.300000
392.280243	156.320000
392.373779	156.880000
392.467407	157.440000
392.560944	157.300000
392.654572	156.580000
392.748108	156.740000
392.841736	156.860000
392.935303	156.080000
393.028900	156.280000
393.122467	156.520000
393.216064	156.140000
393.309631	155.460000
393.403229	155.220000
393.496796	155.220000
393.590393	154.620000
393.683990	155.020000
393.777557	155.760000
393.871155	156.020000
393.964722	156.500000
394.058350	156.700000
394.151917	156.760000
394.245514	156.300000
394.339081	156.840000
394.432678	156.720000
394.526245	156.900000
394.619873	156.300000
394.713409	156.560000
394.807037	156.040000
394.900604	156.000000
394.994202	156.140000
395.087769	156.720000
395.181396	156.240000
395.274994	157.360000
395.368561	156.760000
395.462158	156.920000
395.555756	156.400000
395.649353	156.780000
395.742920	156.060000
395.836517	156.860000
395.930115	155.980000
396.023712	156.520000
396.117279	157.020000
396.210876	156.400000
396.304474	156.020000
396.398071	156.820000
396.491669	156.800000
396.585266	156.120000
396.678833	156.160000
396.772461	156.200000
396.866028	155.440000
396.959656	155.520000
397.053223	155.860000
397.146851	155.700000
397.240417	155.760000
397.334015	156.920000
397.427582	156.500000
397.521210	156.480000
397.614807	156.980000
397.708405	157.160000
397.802002	156.740000
397.895599	157.380000
397.989197	157.360000
398.082794	157.520000
398.176392	157.700000
398.269989	157.940000
398.363586	157.960000
398.457184	158.700000
398.550781	159.000000
398.644379	159.340000
398.737976	159.720000
398.831573	161.200000
398.925201	162.580000
399.018768	166.080000
399.112396	172.060000
399.205963	182.520000
399.299591	199.920000
399.393158	230.000000
399.486786	286.180000
399.580353	387.520000
399.673981	552.660000
399.767578	784.400000
399.861206	1053.000000
399.954773	1301.140000
400.048401	1457.060000
400.141998	1478.540000
400.235596	1359.500000
400.329193	1140.000000
400.422791	879.020000
400.516418	641.580000
400.610016	459.080000
400.703613	337.300000
400.797211	261.460000
400.890808	218.660000
400.984436	195.260000
401.078033	182.640000
401.171631	174.280000
401.265259	169.980000
401.358826	167.140000
401.452484	165.240000
401.546051	163.540000
401.639679	162.540000
401.733246	162.080000
401.826904	160.880000
401.920471	159.260000
402.014099	158.940000
402.107697	158.440000
402.201324	158.000000
402.294891	158.380000
402.388550	158.700000
402.482147	158.340000
402.575745	158.300000
402.669373	157.720000
402.762970	156.900000
402.856567	156.980000
402.950195	156.900000
403.043793	156.560000
403.137390	157.380000
403.231018	156.840000
403.324615	157.640000
403.418243	157.160000
403.511841	157.540000
403.605469	157.200000
403.699066	157.820000
403.792694	157.240000
403.886292	157.460000
403.979919	157.560000
404.073517	157.080000
404.167145	157.280000
404.260712	157.140000
404.354370	156.920000
404.447937	156.780000
404.541595	157.100000
404.635162	157.320000
404.728821	157.940000
404.822418	157.580000
404.916046	157.440000
405.009644	157.720000
405.103271	157.760000
405.196899	157.000000
405.290497	157.460000
405.384125	157.780000
405.477722	157.140000
405.571350	156.640000
405.664948	157.200000
405.758575	157.020000
405.852203	156.520000
405.945801	157.020000
406.039429	157.060000
406.133057	156.340000
406.226654	156.520000
406.320312	156.480000
406.413879	156.140000
406.507538	156.500000
406.601135	156.180000
406.694763	156.500000
406.788361	156.160000
406.882019	156.080000
406.975586	156.280000
407.069244	157.160000
407.162872	157.100000
407.256470	157.300000
407.350098	157.380000
407.443726	156.760000
407.537323	155.880000
407.630951	156.100000
407.724579	155.900000
407.818207	156.220000
407.911804	156.260000
408.005432	156.400000
408.099060	156.260000
408.192688	156.580000
408.286285	156.480000
408.379913	155.880000
408.473572	156.360000
408.567169	155.820000
408.660828	155.840000
408.754395	155.380000
408.848053	155.940000
408.941650	155.880000
409.035309	155.980000
409.128906	156.180000
409.222565	156.260000
409.316132	156.400000
409.409790	156.140000
409.503387	156.240000
409.597046	156.300000
409.690674	156.380000
409.784302	156.360000
409.877930	156.460000
409.971558	156.520000
410.065186	156.080000
410.158783	155.840000
410.252411	155.640000
410.346039	155.800000
410.439667	155.880000
410.533295	156.140000
410.626923	156.440000
410.720551	156.400000
410.814209	156.940000
410.907806	156.880000
411.001465	156.260000
411.095062	156.660000
411.188721	156.760000
411.282318	156.200000
411.375977	155.780000
411.469574	156.260000
411.563232	155.940000
411.656830	155.860000
411.750488	155.680000
411.844086	155.820000
411.937744	155.780000
412.031372	155.480000
412.125000	155.440000
412.218628	155.560000
412.312256	156.080000
412.405884	156.540000
412.499512	156.580000
412.593170	156.680000
412.686798	156.860000
412.780426	156.180000
412.874054	156.280000
412.967682	156.500000
413.061310	157.100000
413.154968	157.160000
413.248566	157.780000
413.342224	157.300000
413.435852	157.360000
413.529510	156.840000
413.623108	156.020000
413.716766	155.740000
413.810364	156.460000
413.904022	156.220000
413.997650	155.940000
414.091309	157.100000
414.184906	157.000000
414.278564	156.180000
414.372192	156.700000
414.465851	156.800000
414.559479	156.340000
414.653107	157.300000
414.746735	157.400000
414.840393	156.980000
414.934021	157.320000
415.027649	156.860000
415.121277	156.520000
415.214935	156.960000
415.308563	156.940000
415.402191	156.280000
415.495850	156.500000
415.589478	155.840000
415.683136	155.460000
415.776733	155.900000
415.870422	156.780000
415.964020	156.500000
416.057678	156.620000
416.151306	156.620000
416.244965	156.560000
416.338562	156.240000
416.432251	156.960000
416.525848	157.880000
416.619507	158.340000
416.713165	158.260000
416.806793	158.120000
416.900421	157.880000
416.994080	156.680000
417.087708	156.560000
417.181366	156.180000
417.274994	155.960000
417.368622	156.160000
417.462280	157.080000
417.555908	156.780000
417.649567	156.720000
417.743195	157.220000
417.836853	157.140000
417.930481	156.940000
418.024170	157.220000
418.117767	157.780000
418.211426	158.040000
418.305054	157.960000
418.398712	157.400000
418.492340	157.320000
418.585999	157.520000
418.679626	156.920000
418.773285	156.680000
418.866913	157.100000
418.960571	157.120000
419.054230	156.820000
419.147858	156.940000
419.241516	157.520000
419.335144	157.040000
419.428802	156.880000
419.522461	156.540000
419.616089	156.080000
419.709747	155.900000
419.803375	156.380000
419.897034	156.120000
419.990662	156.220000
420.084320	157.000000
420.177979	157.360000
420.271606	157.380000
420.365295	158.120000
420.458893	158.260000
420.552582	158.400000
420.646210	158.040000
420.739868	157.580000
420.833496	157.080000
420.927155	156.780000
421.020782	156.100000
421.114471	155.680000
421.208069	155.820000
421.301758	156.080000
421.395386	156.420000
421.489044	156.540000
421.582703	156.660000
421.676361	157.520000
421.769989	156.900000
421.863647	157.000000
421.957306	157.300000
422.050934	157.360000
422.144592	156.700000
422.238251	156.640000
422.331909	156.320000
422.425537	156.040000
422.519196	156.320000
422.612854	155.920000
422.706543	155.920000
422.800140	156.240000
422.893829	155.700000
422.987457	155.440000
423.081146	155.860000
423.174744	156.480000
423.268433	155.820000
423.362061	156.280000
423.455750	156.080000
423.549347	156.040000
423.643036	155.340000
423.736664	156.100000
423.830353	156.080000
423.924011	156.840000
424.017639	156.380000
424.111298	156.660000
424.204956	156.560000
424.298615	156.880000
424.392273	156.140000
424.485931	156.540000
424.579559	156.840000
424.673218	156.820000
424.766876	157.040000
424.860535	156.580000
424.954193	156.220000
425.047882	156.480000
425.141510	156.420000
425.235199	155.980000
425.328796	156.480000
425.422485	156.800000
425.516113	156.260000
425.609802	156.360000
425.703430	156.640000
425.797119	156.760000
425.890747	156.900000
425.984436	156.960000
426.078064	156.820000
426.171753	156.880000
426.265411	156.400000
426.359070	156.520000
426.452728	156.620000
426.546356	156.520000
426.640015	156.000000
426.733673	156.180000
426.827332	155.440000
426.920990	156.040000
427.014648	155.900000
427.108307	156.460000
427.201965	157.120000
427.295624	157.760000
427.389282	156.720000
427.482941	157.000000
427.576630	156.760000
427.670258	155.740000
427.763947	155.500000
427.857574	155.780000
427.951263	155.640000
428.044922	155.520000
428.138611	156.000000
428.232239	156.860000
428.325928	157.540000
428.419556	158.200000
428.513245	157.960000
428.606903	158.500000
428.700562	157.780000
428.794220	156.640000
428.887878	155.960000
428.981537	156.520000
429.075195	156.300000
429.168854	156.700000
429.262512	157.320000
429.356201	157.320000
429.449860	157.160000
429.543518	157.180000
429.637177	157.140000
429.730835	157.000000
429.824493	157.120000
429.918182	157.200000
430.011810	156.680000
430.105530	155.960000
430.199158	156.160000
430.292847	156.200000
430.386475	156.040000
430.480164	156.280000
430.573792	156.500000
430.667511	156.460000
430.761139	156.320000
430.854828	156.840000
430.948456	156.720000
431.042145	157.240000
431.135834	157.060000
431.229492	157.300000
431.323151	157.120000
431.416809	157.120000
431.510468	156.820000
431.604156	156.880000
431.697815	156.840000
431.791473	156.300000
431.885132	156.140000
431.978821	156.720000
432.072479	157.040000
432.166138	157.400000
432.259827	157.440000
432.353485	157.920000
432.447174	157.840000
432.540802	157.860000
432.634491	158.160000
432.728149	158.520000
432.821838	158.960000
432.915466	158.600000
433.009186	158.760000
433.102814	158.060000
433.196503	158.000000
433.290131	157.820000
433.383850	158.000000
433.477509	157.740000
433.571167	158.400000
433.664856	158.820000
433.758514	159.020000
433.852173	158.840000
433.945862	158.800000
434.039520	158.400000
434.133179	157.640000
434.226868	157.100000
434.320526	156.500000
434.414185	157.060000
434.507874	156.540000
434.601562	157.000000
434.695221	156.760000
434.788910	157.080000
434.882538	156.960000
434.976257	156.680000
435.069885	156.640000
435.163574	157.120000
435.257233	156.780000
435.350922	156.400000
435.444580	156.400000
435.538269	155.900000
435.631897	156.280000
435.725616	157.160000
435.819275	157.640000
435.912964	158.500000
436.006622	159.300000
436.100311	158.940000
436.193970	158.000000
436.287628	157.480000
436.381317	157.100000
436.474976	156.800000
436.568665	156.640000
436.662323	156.900000
436.756012	156.920000
436.849670	157.000000
436.943390	156.560000
437.037018	156.420000
437.130737	156.700000
437.224365	156.500000
437.318085	156.260000
437.411713	156.520000
437.505432	156.920000
437.599060	157.260000
437.692780	158.180000
437.786407	158.500000
437.880127	158.580000
437.973755	158.320000
438.067474	157.740000
438.161133	157.120000
438.254822	157.420000
438.348480	157.020000
438.442169	157.520000
438.535828	158.080000
438.629517	157.860000
438.723175	156.900000
438.816864	158.060000
438.910553	157.120000
439.004211	156.700000
439.097900	156.420000
439.191559	156.880000
439.285248	155.380000
439.378906	155.920000
439.472626	155.640000
439.566284	155.860000
439.659973	156.280000
439.753632	156.560000
439.847321	156.820000
439.940979	156.900000
440.034698	156.700000
440.128326	155.920000
440.222046	155.800000
440.315674	154.820000
440.409393	155.000000
440.503082	155.080000
440.596741	155.340000
440.690430	155.900000
440.784088	156.060000
440.877777	155.540000
440.971466	155.680000
441.065125	155.600000
441.158813	155.100000
441.252502	155.360000
441.346161	155.880000
441.439850	155.860000
441.533539	155.560000
441.627197	155.900000
441.720886	155.640000
441.814606	156.020000
441.908234	156.480000
442.001953	156.700000
442.095612	156.580000
442.189301	156.920000
442.282959	156.400000
442.376678	155.440000
442.470306	156.320000
442.564026	156.300000
442.657684	156.320000
442.751404	156.240000
442.845032	157.160000
442.938751	156.100000
443.032440	156.260000
443.126099	155.880000
443.219788	156.300000
443.313477	155.780000
443.407166	156.140000
443.500824	156.220000
443.594513	156.620000
443.688202	156.460000
443.781891	156.160000
443.875549	155.920000
443.969238	156.020000
444.062927	156.040000
444.156647	156.100000
444.250275	156.540000
444.343994	156.440000
444.437653	156.540000
444.531372	156.400000
444.625031	156.060000
444.718719	155.900000
444.812378	156.160000
444.906097	155.900000
444.999756	155.460000
445.093445	155.620000
445.187103	155.560000
445.280823	156.060000
445.374512	155.480000
445.468201	155.660000
445.561859	155.580000
445.655548	155.720000
445.749237	155.060000
445.842926	155.460000
445.936615	155.980000
446.030304	155.440000
446.123962	155.740000
446.217651	155.720000
446.311340	155.840000
446.405029	155.160000
446.498749	155.600000
446.592407	155.140000
446.686096	155.340000
446.779755	155.380000
446.873474	155.580000
446.967133	155.820000
447.060852	155.300000
447.154510	155.040000
447.248230	154.860000
447.341858	155.060000
447.435577	154.420000
447.529236	154.560000
447.622955	154.460000
447.716644	154.320000
447.810333	154.480000
447.904022	155.260000
447.997711	155.300000
448.091400	156.060000
448.185059	156.300000
448.278748	156.600000
448.372437	156.200000
448.466125	156.900000
448.559814	156.340000
448.653503	156.740000
448.747192	156.920000
448.840912	157.080000
448.934570	156.860000
449.028290	157.360000
449.121948	156.940000
449.215637	156.100000
449.309296	155.800000
449.403015	155.740000
449.496674	155.640000
449.590393	155.820000
449.684052	155.820000
449.777771	156.860000
449.871429	156.280000
449.965149	156.060000
450.058838	156.120000
450.152527	156.640000
450.246216	156.040000
450.339905	156.680000
450.433594	156.320000
450.527283	156.860000
450.620972	156.360000
450.714661	156.360000
450.808350	156.400000
450.902039	156.880000
450.995728	156.340000
451.089417	156.240000
451.183105	155.980000
451.276794	156.520000
451.370514	155.860000
451.464172	155.260000
451.557892	155.360000
451.651550	155.720000
451.745270	155.080000
451.838928	154.540000
451.932648	154.820000
452.026306	155.440000
452.120026	155.200000
452.213684	155.740000
452.307404	156.760000
452.401062	157.060000
452.494781	156.860000
452.588470	156.960000
452.682159	156.160000
452.775848	155.880000
452.869537	155.180000
452.963226	154.520000
453.056915	154.020000
453.150604	154.540000
453.244293	155.040000
453.337982	155.720000
453.431671	156.220000
453.525360	157.160000
453.619049	156.960000
453.712769	156.820000
453.806427	156.540000
453.900146	156.200000
453.993805	155.800000
454.087555	156.340000
454.181213	156.420000
454.274933	156.480000
454.368591	156.760000
454.462311	156.660000
454.555969	155.900000
454.649689	156.520000
454.743347	156.380000
454.837067	156.980000
454.930756	157.400000
455.024445	157.740000
455.118134	156.960000
455.211853	156.960000
455.305542	156.040000
455.399231	155.800000
455.492920	155.540000
455.586609	155.480000
455.680298	155.860000
455.773987	155.700000
455.867676	155.480000
455.961365	155.880000
456.055084	155.840000
456.148773	155.340000
456.242493	155.840000
456.336151	156.020000
456.429871	156.220000
456.523529	156.760000
456.617249	156.700000
456.710907	157.260000
456.804626	157.220000
456.898315	156.400000
456.992035	155.980000
457.085693	155.860000
457.179413	154.860000
457.273102	155.880000
457.366791	156.360000
457.460480	156.940000
457.554199	157.580000
457.647888	158.040000
457.741577	157.100000
457.835266	157.260000
457.928955	156.960000
458.022644	157.060000
458.116364	157.180000
458.210052	157.200000
458.303741	157.080000
458.397461	156.420000
458.491119	155.820000
458.584839	155.560000
458.678528	155.120000
458.772247	154.680000
458.865906	155.180000
458.959625	156.220000
459.053284	156.260000
459.147003	156.040000
459.240692	156.800000
459.334412	156.800000
459.428070	155.900000
459.521790	155.820000
459.615479	156.360000
459.709198	156.280000
459.802887	155.720000
459.896576	155.460000
459.990265	155.740000
460.083954	155.880000
460.177673	155.660000
460.271362	156.040000
460.365051	156.420000
460.458740	156.120000
460.552429	155.440000
460.646149	155.440000
460.739838	155.280000
460.833527	155.300000
460.927246	155.000000
461.020905	155.260000
461.114655	155.020000
461.208313	155.460000
461.302032	155.300000
461.395691	155.900000
461.489441	155.940000
461.583099	155.960000
461.676819	155.580000
461.770477	155.940000
461.864197	155.500000
461.957916	155.480000
462.051605	154.980000
462.145294	156.020000
462.238983	155.440000
462.332703	155.940000
462.426392	156.800000
462.520081	157.300000
462.613770	156.200000
462.707489	156.660000
462.801178	156.380000
462.894867	155.740000
462.988556	155.620000
463.082275	155.880000
463.175964	155.440000
463.269684	155.720000
463.363342	155.880000
463.457092	155.060000
463.550751	155.500000
463.644470	155.760000
463.738129	155.420000
463.831879	155.560000
463.925537	156.940000
464.019257	156.880000
464.112946	156.980000
464.206665	156.900000
464.300323	156.360000
464.394043	156.020000
464.487762	155.500000
464.581451	155.820000
464.675140	155.840000
464.768829	156.240000
464.862549	156.080000
464.956238	156.320000
465.049927	156.260000
465.143646	156.620000
465.237335	156.340000
465.331024	156.500000
465.424713	156.420000
465.518433	156.300000
465.612152	155.720000
465.705811	155.680000
465.799561	155.700000
465.893219	155.500000
465.986938	155.360000
466.080597	155.360000
466.174347	155.720000
466.268005	155.700000
466.361725	156.040000
466.455414	155.980000
466.549133	156.020000
466.642792	156.100000
466.736542	155.600000
466.830231	155.260000
466.923920	155.260000
467.017609	155.420000
467.111328	154.800000
467.205017	155.340000
467.298706	155.600000
467.392426	155.780000
467.486115	156.160000
467.579803	156.140000
467.673523	156.000000
467.767212	156.420000
467.860901	156.200000
467.954651	156.100000
468.048309	156.520000
468.142029	156.480000
468.235718	156.260000
468.329437	156.140000
468.423096	156.140000
468.516846	155.960000
468.610504	155.900000
468.704224	155.420000
468.797913	155.540000
468.891632	155.660000
468.985291	155.900000
469.079010	155.940000
469.172729	155.560000
469.266418	155.900000
469.360107	155.660000
469.453827	155.260000
469.547516	154.980000
469.641205	155.520000
469.734924	155.920000
469.828613	156.420000
469.922302	156.720000
470.016022	157.160000
470.109711	157.220000
470.203430	156.120000
470.297150	154.820000
470.390808	154.840000
470.484558	154.620000
470.578217	155.260000
470.671936	156.080000
470.765625	157.360000
470.859344	157.080000
470.953003	157.560000
471.046753	156.820000
471.140411	156.120000
471.234131	155.880000
471.327820	156.560000
471.421539	156.180000
471.515228	155.840000
471.608948	156.180000
471.702637	155.600000
471.796326	155.120000
471.890045	155.540000
471.983734	155.900000
472.077423	155.400000
472.171143	155.980000
472.264832	155.760000
472.358521	155.300000
472.452240	155.100000
472.545929	156.040000
472.639648	155.900000
472.733337	156.340000
472.827057	156.620000
472.920746	156.820000
473.014465	157.160000
473.108124	157.400000
473.201874	157.660000
473.295532	157.600000
473.389252	158.020000
473.482941	157.740000
473.576660	157.160000
473.670319	156.520000
473.764069	156.560000
473.857727	156.520000
473.951477	156.560000
474.045166	157.280000
474.138855	157.400000
474.232574	157.160000
474.326263	157.140000
474.419952	157.360000
474.513672	157.020000
474.607361	156.960000
474.701050	157.220000
474.794769	157.000000
474.888458	157.100000
474.982178	157.080000
475.075867	157.480000
475.169586	157.500000
475.263275	157.180000
475.356995	156.680000
475.450653	156.160000
475.544403	155.480000
475.638062	156.200000
475.731812	156.180000
475.825470	155.560000
475.919189	156.040000
476.012878	156.440000
476.106598	155.360000
476.200256	155.640000
476.294006	155.780000
476.387695	155.800000
476.481384	155.800000
476.575104	155.940000
476.668793	155.920000
476.762512	156.000000
476.856201	156.500000
476.949890	155.880000
477.043610	155.520000
477.137299	155.600000
477.230988	155.780000
477.324707	155.280000
477.418396	156.140000
477.512146	156.460000
477.605804	156.460000
477.699524	156.700000
477.793213	156.320000
477.886932	156.240000
477.980591	155.800000
478.074341	155.660000
478.167999	154.760000
478.261749	155.320000
478.355408	154.960000
478.449127	155.680000
478.542816	156.540000
478.636536	157.560000
478.730225	157.440000
478.823944	157.680000
478.917633	157.620000
479.011322	157.360000
479.105042	157.200000
479.198730	157.420000
479.292450	157.580000
479.386139	157.480000
479.479828	157.160000
479.573547	157.360000
479.667267	157.080000
479.760925	156.900000
479.854675	156.880000
479.948334	157.280000
480.042084	156.560000
480.135742	157.000000
480.229462	156.300000
480.323151	156.380000
480.416870	155.400000
480.510529	155.640000
480.604279	154.780000
480.697937	155.600000
480.791656	154.800000
480.885345	154.840000
480.979065	155.080000
481.072754	155.680000
481.166473	155.840000
481.260132	156.440000
481.353882	156.440000
481.447540	156.340000
481.541260	156.360000
481.635010	155.900000
481.728668	155.680000
481.822388	155.680000
481.916077	155.840000
482.009796	155.360000
482.103485	155.740000
482.197205	155.980000
482.290863	156.480000
482.384613	155.920000
482.478271	155.920000
482.571991	155.840000
482.665680	155.940000
482.759399	156.500000
482.853058	157.120000
482.946808	157.180000
483.040466	157.100000
483.134216	156.900000
483.227875	156.240000
483.321594	156.620000
483.415283	156.760000
483.509003	156.300000
483.602661	156.060000
483.696411	156.360000
483.790070	155.800000
483.883789	155.940000
483.977478	156.400000
484.071198	156.600000
484.164917	155.660000
484.258606	155.200000
484.352325	155.280000
484.445984	155.460000
484.539734	155.320000
484.633392	155.340000
484.727142	155.920000
484.820801	155.680000
484.914520	155.540000
485.008209	156.020000
485.101929	156.480000
485.195587	156.220000
485.289337	156.080000
485.382996	156.180000
485.476715	156.020000
485.570404	156.620000
485.664124	156.540000
485.757782	157.520000
485.851532	156.900000
485.945190	156.920000
486.038910	156.960000
486.132599	157.540000
486.226318	156.420000
486.319977	156.580000
486.413727	156.960000
486.507446	156.280000
486.601105	155.340000
486.694855	155.400000
486.788513	155.420000
486.882233	155.360000
486.975922	155.260000
487.069641	155.740000
487.163300	155.880000
487.257050	157.360000
487.350708	156.780000
487.444427	156.720000
487.538116	156.680000
487.631836	156.380000
487.725494	155.500000
487.819214	155.720000
487.912903	155.720000
488.006622	156.020000
488.100281	156.160000
488.194031	155.820000
488.287689	156.240000
488.381409	156.940000
488.475098	156.680000
488.568817	157.200000
488.662476	156.820000
488.756226	155.920000
488.849945	154.940000
488.943604	155.120000
489.037354	155.080000
489.131012	155.300000
489.224731	155.340000
489.318390	155.480000
489.412140	155.500000
489.505798	155.740000
489.599518	155.540000
489.693207	156.420000
489.786926	156.760000
489.880585	156.440000
489.974335	156.060000
490.067993	157.280000
490.161713	157.520000
490.255371	158.160000
490.349121	158.440000
490.442780	158.160000
490.536499	157.040000
490.630188	156.700000
490.723907	155.880000
490.817566	156.080000
490.911285	156.260000
491.004974	156.300000
491.098694	155.540000
491.192413	156.560000
491.286102	155.980000
491.379822	156.160000
491.473480	156.360000
491.567200	156.640000
491.660889	155.260000
491.754608	155.420000
491.848267	154.980000
491.941986	154.900000
492.035675	154.840000
492.129395	155.720000
492.223053	155.620000
492.316772	156.120000
492.410461	156.020000
492.504181	156.300000
492.597839	155.520000
492.691559	155.800000
492.785248	156.060000
492.878967	156.400000
492.972626	155.900000
493.066345	156.460000
493.160034	155.800000
493.253754	155.380000
493.347412	154.760000
493.441132	155.240000
493.534882	155.760000
493.628540	156.300000
493.722260	156.560000
493.815918	157.040000
493.909668	157.540000
494.003326	157.500000
494.097046	157.420000
494.190704	157.160000
494.284454	157.000000
494.378113	156.580000
494.471832	156.300000
494.565491	156.260000
494.659210	156.200000
494.752899	156.640000
494.846619	156.480000
494.940277	156.500000
495.033997	156.540000
495.127686	156.220000
495.221405	155.880000
495.315063	156.300000
495.408783	156.480000
495.502441	156.680000
495.596191	156.900000
495.689850	156.300000
495.783569	156.580000
495.877228	156.500000
495.970947	156.320000
496.064697	156.240000
496.158356	157.760000
496.252075	157.140000
496.345734	156.680000
496.439453	157.480000
496.533142	157.880000
496.626862	157.640000
496.720520	157.480000
496.814240	157.720000
496.907898	156.980000
497.001617	157.060000
497.095306	156.080000
497.189026	156.180000
497.282684	155.980000
497.376404	156.480000
497.470062	156.000000
497.563782	156.440000
497.657471	156.220000
497.751190	156.320000
497.844849	156.120000
497.938568	156.500000
498.032227	156.300000
498.125946	156.580000
498.219635	156.200000
498.313354	155.940000
498.407074	155.560000
498.500732	155.840000
498.594452	156.020000
498.688110	156.000000
498.781830	155.760000
498.875519	155.700000
498.969238	155.420000
499.062897	155.000000
499.156616	155.740000
499.250275	155.960000
499.343994	155.860000
499.437653	156.100000
499.531372	156.500000
499.625061	156.800000
499.718781	156.840000
499.812439	157.380000
499.906158	156.840000
499.999817	156.560000
500.093536	155.840000
500.187195	155.980000
500.280914	155.900000
500.374573	156.340000
500.468323	156.040000
500.561981	156.540000
500.655701	156.100000
500.749420	155.780000
500.843079	156.100000
500.936798	156.420000
501.030457	156.460000
501.124176	156.780000
501.217834	156.920000
501.311554	156.720000
501.405212	156.460000
501.498962	155.580000
501.592621	155.460000
501.686340	155.800000
501.779999	155.620000
501.873718	156.060000
501.967377	156.420000
502.061096	156.920000
502.154755	156.280000
502.248474	156.740000
502.342133	157.000000
502.435852	157.060000
502.529510	157.260000
502.623230	158.120000
502.716888	156.960000
502.810608	156.480000
502.904266	157.080000
502.997986	156.580000
503.091705	155.940000
503.185364	156.380000
503.279083	156.640000
503.372772	156.000000
503.466492	155.500000
503.560150	155.360000
503.653870	155.780000
503.747528	155.800000
503.841248	155.800000
503.934906	156.020000
504.028625	156.240000
504.122284	156.200000
504.216003	156.380000
504.309662	156.340000
504.403381	156.700000
504.497040	156.560000
504.590759	156.480000
504.684418	156.540000
504.778137	156.820000
504.871796	156.960000
504.965515	156.760000
505.059174	156.800000
505.152893	156.080000
505.246521	155.780000
505.340240	155.280000
505.433899	155.680000
505.527618	155.760000
505.621338	156.380000
505.714996	156.360000
505.808716	156.340000
505.902374	156.660000
505.996094	156.620000
506.089752	156.180000
506.183472	156.280000
506.277130	156.740000
506.370850	156.780000
506.464508	156.540000
506.558228	156.460000
506.651886	156.280000
506.745605	156.120000
506.839264	155.840000
506.932983	156.220000
507.026611	156.120000
507.120331	156.520000
507.213989	155.860000
507.307709	155.720000
507.401367	155.620000
507.495087	156.900000
507.588745	156.480000
507.682465	157.620000
507.776123	157.500000
507.869843	157.460000
507.963531	156.800000
508.057190	157.460000
508.150909	156.520000
508.244568	156.920000
508.338287	156.700000
508.431946	156.500000
508.525665	156.140000
508.619324	156.280000
508.713013	156.160000
508.806671	156.480000
508.900391	157.180000
508.994049	157.160000
509.087769	156.780000
509.181427	156.640000
509.275146	156.260000
509.368774	155.360000
509.462494	155.320000
509.556152	155.700000
509.649872	156.460000
509.743530	156.860000
509.837250	157.080000
509.930878	157.280000
510.024597	157.120000
510.118256	156.480000
510.211975	156.480000
510.305695	156.340000
510.399353	156.560000
510.493042	157.160000
510.586700	157.340000
510.680420	157.800000
510.774078	157.640000
510.867798	157.540000
510.961426	156.760000
511.055145	156.840000
511.148804	156.120000
511.242523	156.780000
511.336151	156.480000
511.429871	157.080000
511.523529	156.580000
511.617249	156.240000
511.710876	155.740000
511.804596	155.580000
511.898254	155.480000
511.991974	155.940000
512.085632	156.020000
512.179321	156.300000
512.272949	156.880000
512.366699	157.180000
512.460327	157.120000
512.554077	158.300000
512.647766	158.120000
512.741394	157.580000
512.835144	158.140000
512.928772	157.600000
513.022461	156.980000
513.116150	156.780000
513.209839	157.560000
513.303467	156.880000
513.397217	156.840000
513.490845	156.680000
513.584595	156.720000
513.678223	155.840000
513.771912	155.040000
513.865601	155.440000
513.959290	155.060000
514.052917	154.880000
514.146667	155.740000
514.240295	156.360000
514.333984	156.700000
514.427673	156.860000
514.521362	157.320000
514.614990	156.600000
514.708740	156.660000
514.802368	156.720000
514.896057	157.080000
514.989746	157.820000
515.083435	157.680000
515.177124	157.680000
515.270752	157.020000
515.364502	156.700000
515.458130	156.060000
515.551819	156.220000
515.645508	156.060000
515.739197	156.160000
515.832825	156.360000
515.926575	156.020000
516.020203	156.340000
516.113892	157.160000
516.207520	157.120000
516.301270	156.900000
516.394897	157.120000
516.488586	157.480000
516.582275	157.080000
516.675964	156.480000
516.769592	156.660000
516.863281	157.320000
516.956970	157.320000
517.050659	156.980000
517.144287	157.560000
517.238037	157.600000
517.331665	156.700000
517.425354	155.960000
517.519043	155.900000
517.612732	156.140000
517.706421	155.820000
517.800049	155.660000
517.893738	155.540000
517.987427	155.500000
518.081116	155.380000
518.174744	155.300000
518.268433	155.960000
518.362122	157.040000
518.455811	157.060000
518.549438	157.580000
518.643127	158.420000
518.736816	158.040000
518.830505	156.980000
518.924133	156.800000
519.017822	156.720000
519.111511	156.080000
519.205200	156.700000
519.298828	156.700000
519.392517	156.620000
519.486206	156.680000
519.579895	156.940000
519.673523	156.160000
519.767212	156.400000
519.860901	157.160000
519.954590	156.480000
520.048279	156.220000
520.141907	156.280000
520.235596	157.160000
520.329224	157.100000
520.422974	157.160000
520.516602	157.080000
520.610291	156.580000
520.703918	155.840000
520.797607	155.320000
520.891296	155.440000
520.984985	155.620000
521.078613	156.540000
521.172302	156.280000
521.265930	157.240000
521.359680	157.820000
521.453308	157.740000
521.546997	157.360000
521.640625	157.500000
521.734314	156.560000
521.827942	156.180000
521.921692	156.260000
522.015320	156.460000
522.109009	156.140000
522.202698	156.160000
522.296326	156.040000
522.390015	156.240000
522.483704	156.220000
522.577393	156.360000
522.671021	155.880000
522.764709	155.680000
522.858337	156.020000
522.952026	156.160000
523.045654	156.840000
523.139404	158.180000
523.233032	158.500000
523.326721	157.880000
523.420349	157.960000
523.514038	157.200000
523.607666	157.060000
523.701355	156.580000
523.795044	156.560000
523.888733	156.380000
523.982361	157.000000
524.076050	156.180000
524.169678	156.920000
524.263367	156.500000
524.356995	156.060000
524.450684	155.780000
524.544373	155.700000
524.638062	155.140000
524.731750	155.720000
524.825378	156.040000
524.919067	155.480000
525.012695	155.960000
525.106384	155.780000
525.200012	156.000000
525.293701	155.760000
525.387329	156.340000
525.481018	156.140000
525.574646	156.540000
525.668396	156.460000
525.762024	156.760000
525.855713	156.860000
525.949341	156.580000
526.043030	156.480000
526.136658	155.940000
526.230347	155.740000
526.323975	155.340000
526.417664	155.400000
526.511292	155.280000
526.604980	155.380000
526.698608	155.500000
526.792297	155.500000
526.885925	155.660000
526.979614	156.040000
527.073303	156.440000
527.166931	156.420000
527.260620	156.680000
527.354309	157.140000
527.447998	156.920000
527.541626	156.340000
527.635315	156.440000
527.728943	156.660000
527.822632	156.520000
527.916260	156.600000
528.009949	157.140000
528.103577	156.920000
528.197266	156.120000
528.290894	156.140000
528.384583	155.880000
528.478210	155.640000
528.571899	155.880000
528.665527	156.440000
528.759216	156.340000
528.852844	156.880000
528.946533	157.000000
529.040161	156.640000
529.133850	156.380000
529.227478	156.740000
529.321167	156.860000
529.414856	157.260000
529.508484	158.240000
529.602173	158.060000
529.695801	157.360000
529.789490	156.980000
529.883057	156.500000
529.976746	155.980000
530.070374	156.580000
530.164062	156.540000
530.257690	156.760000
530.351379	157.020000
530.445007	156.820000
530.538696	156.240000
530.632324	157.040000
530.726013	156.960000
530.819641	156.840000
530.913330	156.880000
531.006958	157.000000
531.100647	156.480000
531.194275	156.220000
531.287964	156.000000
531.381592	155.960000
531.475220	156.160000
531.568848	156.000000
531.662537	155.900000
531.756226	156.280000
531.849854	156.380000
531.943542	156.060000
532.037170	155.740000
532.130859	156.440000
532.224487	156.080000
532.318176	155.580000
532.411804	156.140000
532.505432	156.780000
532.599060	156.280000
532.692749	156.320000
532.786377	156.780000
532.880066	156.100000
532.973694	155.460000
533.067383	155.500000
533.161011	155.360000
533.254639	155.340000
533.348267	155.200000
533.441956	155.960000
533.535583	155.680000
533.629272	156.040000
533.722900	155.380000
533.816589	155.900000
533.910156	155.860000
534.003845	155.700000
534.097534	155.940000
534.191162	156.740000
534.284851	156.980000
534.378479	156.560000
534.472107	156.800000
534.565735	156.240000
534.659424	156.460000
534.753052	156.100000
534.846741	155.860000
534.940369	156.700000
535.033997	156.620000
535.127625	156.300000
535.221313	157.120000
535.314941	157.240000
535.408630	156.320000
535.502197	156.740000
535.595886	156.620000
535.689514	155.680000
535.783203	156.160000
535.876831	156.740000
535.970459	156.700000
536.064087	156.400000
536.157776	156.640000
536.251404	156.520000
536.345093	156.080000
536.438721	156.040000
536.532349	156.660000
536.626038	156.580000
536.719666	157.060000
536.813293	156.860000
536.906921	157.080000
537.000610	157.100000
537.094238	157.060000
537.187866	156.660000
537.281494	156.680000
537.375183	156.640000
537.468811	156.460000
537.562439	156.640000
537.656067	156.520000
537.749756	156.860000
537.843384	157.340000
537.937012	157.220000
538.030640	156.780000
538.124329	156.700000
538.217896	157.160000
538.311584	156.660000
538.405212	156.760000
538.498901	157.500000
538.592468	158.360000
538.686157	157.140000
538.779785	156.360000
538.873413	156.060000
538.967102	155.480000
539.060730	154.640000
539.154358	155.320000
539.247986	155.880000
539.341675	156.080000
539.435242	156.220000
539.528931	156.340000
539.622559	156.040000
539.716187	156.480000
539.809814	156.480000
539.903503	156.380000
539.997070	156.320000
540.090759	156.380000
540.184387	156.180000
540.278015	156.720000
540.371643	157.100000
540.465332	156.940000
540.558899	156.980000
540.652588	157.000000
540.746216	156.460000
540.839844	156.740000
540.933472	157.160000
541.027100	157.260000
541.120728	157.420000
541.214417	157.560000
541.308044	157.460000
541.401672	157.080000
541.495300	156.980000
541.588928	156.400000
541.682617	156.160000
541.776184	155.720000
541.869873	156.020000
541.963440	156.180000
542.057129	156.180000
542.150757	156.040000
542.244385	155.840000
542.338013	155.420000
542.431641	155.620000
542.525269	156.240000
542.618958	156.920000
542.712524	157.600000
542.806213	157.280000
542.899780	157.120000
542.993469	156.500000
543.087036	156.060000
543.180725	155.340000
543.274292	156.220000
543.367981	156.320000
543.461548	156.700000
543.555237	156.880000
543.648926	157.640000
543.742493	158.280000
543.836182	158.160000
543.929749	157.760000
544.023437	157.700000
544.117004	157.420000
544.210693	156.760000
544.304260	157.040000
544.397949	157.120000
544.491516	157.360000
544.585205	157.320000
544.678772	156.680000
544.772461	156.900000
544.866028	156.840000
544.959717	156.540000
545.053284	156.260000
545.146973	156.660000
545.240540	156.380000
545.334229	156.960000
545.427795	157.340000
545.521423	157.680000
545.615051	157.740000
545.708679	158.120000
545.802307	157.940000
545.895935	157.780000
545.989624	158.380000
546.083191	158.100000
546.176880	157.820000
546.270447	157.100000
546.364136	157.560000
546.457703	156.900000
546.551331	156.960000
546.644958	157.140000
546.738586	158.180000
546.832214	157.400000
546.925842	157.400000
547.019409	157.860000
547.113098	157.260000
547.206665	156.420000
547.300354	156.700000
547.393921	156.900000
547.487549	156.940000
547.581177	156.600000
547.674805	157.000000
547.768433	156.160000
547.862061	156.240000
547.955627	155.540000
548.049316	156.360000
548.142883	156.560000
548.236572	157.580000
548.330139	157.600000
548.423767	157.740000
548.517456	157.320000
548.611023	157.460000
548.704651	156.700000
548.798279	156.540000
548.891907	157.080000
548.985474	157.220000
549.079163	157.180000
549.172729	157.060000
549.266357	156.500000
549.359985	156.220000
549.453613	155.420000
549.547180	155.040000
549.640869	155.580000
549.734436	155.620000
549.828064	156.200000
549.921631	156.860000
550.015320	156.500000
550.108887	157.060000
550.202515	157.380000
550.296143	156.460000
550.389771	156.720000
550.483337	157.200000
550.576965	156.460000
550.670593	156.880000
550.764221	157.160000
550.857849	156.800000
550.951477	156.400000
551.045105	156.300000
551.138672	156.020000
551.232300	155.720000
551.325928	156.120000
551.419556	156.200000
551.513123	156.520000
551.606750	156.460000
551.700378	156.820000
551.794006	156.740000
551.887573	156.960000
551.981201	157.340000
552.074768	156.860000
552.168457	156.500000
552.262024	157.180000
552.355652	157.160000
552.449219	157.460000
552.542847	158.020000
552.636475	157.980000
552.730103	156.820000
552.823669	156.520000
552.917297	155.580000
553.010864	155.200000
553.104553	155.720000
553.198181	155.620000
553.291748	156.220000
553.385376	156.640000
553.478943	156.860000
553.572571	156.700000
553.666199	157.140000
553.759827	156.560000
553.853394	155.940000
553.947021	155.900000
554.040588	155.820000
554.134216	155.720000
554.227783	156.560000
554.321411	157.440000
554.415039	156.980000
554.508667	157.100000
554.602234	157.500000
554.695862	156.480000
554.789429	156.140000
554.883057	156.560000
554.976624	156.420000
555.070251	156.020000
555.163818	156.080000
555.257507	156.120000
555.351074	156.100000
555.444702	157.280000
555.538330	157.000000
555.631897	157.380000
555.725525	157.100000
555.819092	156.960000
555.912720	155.660000
556.006287	156.400000
556.099915	156.580000
556.193481	156.860000
556.287109	157.500000
556.380676	157.340000
556.474304	156.960000
556.567871	157.200000
556.661499	156.740000
556.755066	156.160000
556.848694	156.480000
556.942261	156.440000
557.035889	156.320000
557.129517	156.840000
557.223145	157.500000
557.316711	157.560000
557.410339	157.660000
557.503906	157.320000
557.597473	157.420000
557.691040	156.880000
557.784668	156.620000
557.878296	156.700000
557.971863	156.820000
558.065491	156.600000
558.159058	156.360000
558.252686	157.500000
558.346252	158.200000
558.439880	157.540000
558.533447	157.200000
558.627075	157.000000
558.720642	155.880000
558.814270	155.280000
558.907837	155.600000
559.001465	155.380000
559.095032	156.420000
559.188660	156.780000
559.282227	156.040000
559.375854	156.920000
559.469360	157.240000
559.562988	157.420000
559.656555	157.200000
559.750183	157.600000
559.843750	157.220000
559.937378	157.180000
560.030945	156.280000
560.124573	0.000000
560.218140	0.000000
560.311707	0.000000
560.405334	0.000000
560.498901	0.000000
560.592529	0.000000
560.686096	0.000000
560.779724	0.000000
560.873291	0.000000
560.966858	0.000000
561.060425	0.000000
561.154053	0.000000
561.247620	0.000000
561.341248	0.000000
561.434814	0.000000
561.528381	0.000000
561.621948	0.000000
561.715576	0.000000
561.809143	0.000000
561.902771	0.000000
561.996277	0.000000
562.089905	0.000000
562.183472	0.000000
562.277100	0.000000
