Model Number: SPM-002-B   
Serial Number: 70087108
Firmware Version: 004.15.4
Exposure Time: 100000.000000us
Data Taken on: 15-01-2021 17:39:32.022
Wavelength	Amplitude
221.570786	0.000000
221.663406	0.000000
221.756027	0.000000
221.848648	0.000000
221.941269	0.000000
222.033905	0.000000
222.126526	0.000000
222.219162	0.000000
222.311798	0.000000
222.404419	0.000000
222.497055	0.000000
222.589676	0.000000
222.682312	0.000000
222.774933	0.000000
222.867569	0.000000
222.960205	0.000000
223.052841	0.000000
223.145462	0.000000
223.238098	0.000000
223.330734	0.000000
223.423386	0.000000
223.516022	0.000000
223.608658	0.000000
223.701309	0.000000
223.793945	0.000000
223.886581	0.000000
223.979218	0.000000
224.071869	0.000000
224.164505	0.000000
224.257156	0.000000
224.349792	0.000000
224.442444	0.000000
224.535095	0.000000
224.627747	0.000000
224.720398	0.000000
224.813034	0.000000
224.905685	0.000000
224.998337	155.840000
225.090988	155.380000
225.183640	155.180000
225.276291	154.520000
225.368942	155.140000
225.461594	156.040000
225.554245	156.400000
225.646912	156.160000
225.739578	156.720000
225.832230	157.060000
225.924896	156.120000
226.017548	156.400000
226.110199	157.040000
226.202866	156.580000
226.295532	156.120000
226.388184	156.020000
226.480850	155.180000
226.573517	154.900000
226.666168	155.100000
226.758835	155.440000
226.851501	156.180000
226.944183	156.700000
227.036850	156.340000
227.129517	156.500000
227.222183	156.600000
227.314850	156.260000
227.407516	156.540000
227.500198	157.940000
227.592865	157.380000
227.685532	156.980000
227.778214	156.660000
227.870880	156.840000
227.963562	156.500000
228.056229	157.140000
228.148926	157.320000
228.241592	158.200000
228.334274	157.440000
228.426956	156.980000
228.519638	157.040000
228.612305	156.340000
228.704987	156.240000
228.797668	156.740000
228.890350	156.420000
228.983032	155.580000
229.075714	156.420000
229.168396	156.100000
229.261108	155.760000
229.353790	156.000000
229.446472	156.500000
229.539169	156.320000
229.631851	155.740000
229.724533	155.940000
229.817230	156.040000
229.909912	156.880000
230.002609	156.760000
230.095306	157.060000
230.187988	157.140000
230.280685	157.040000
230.373383	156.000000
230.466095	155.680000
230.558792	156.200000
230.651474	156.060000
230.744171	155.880000
230.836868	155.940000
230.929581	156.420000
231.022278	156.040000
231.114975	156.400000
231.207672	156.340000
231.300369	156.700000
231.393082	156.420000
231.485779	156.220000
231.578506	155.600000
231.671204	155.840000
231.763916	155.580000
231.856613	155.880000
231.949326	156.220000
232.042023	156.100000
232.134735	156.060000
232.227448	155.800000
232.320160	155.880000
232.412872	155.960000
232.505585	157.100000
232.598297	157.440000
232.691010	157.400000
232.783722	156.920000
232.876450	157.260000
232.969162	156.320000
233.061874	155.740000
233.154587	155.840000
233.247314	156.240000
233.340027	155.660000
233.432739	156.340000
233.525467	156.180000
233.618179	156.540000
233.710907	156.400000
233.803635	156.620000
233.896347	156.020000
233.989090	156.940000
234.081818	156.740000
234.174545	156.840000
234.267258	156.580000
234.359985	156.860000
234.452713	156.480000
234.545441	156.240000
234.638168	156.040000
234.730896	156.460000
234.823639	156.100000
234.916367	156.160000
235.009094	156.440000
235.101822	156.200000
235.194580	155.980000
235.287308	156.340000
235.380051	155.860000
235.472778	155.940000
235.565521	156.340000
235.658249	156.100000
235.750992	155.980000
235.843719	156.060000
235.936462	156.600000
236.029205	156.460000
236.121948	155.880000
236.214691	156.500000
236.307449	157.280000
236.400192	156.260000
236.492935	156.020000
236.585678	156.480000
236.678421	156.020000
236.771164	155.320000
236.863907	156.040000
236.956665	156.460000
237.049408	158.160000
237.142151	157.320000
237.234909	158.320000
237.327652	158.000000
237.420410	157.680000
237.513153	156.760000
237.605927	157.400000
237.698669	156.480000
237.791428	156.100000
237.884186	156.700000
237.976944	156.080000
238.069702	155.960000
238.162445	155.780000
238.255203	155.900000
238.347961	155.820000
238.440720	155.900000
238.533478	156.200000
238.626266	156.020000
238.719025	156.340000
238.811783	156.220000
238.904541	156.200000
238.997314	155.640000
239.090073	155.560000
239.182831	156.060000
239.275604	156.980000
239.368362	157.040000
239.461136	157.420000
239.553909	157.500000
239.646667	156.820000
239.739441	155.820000
239.832214	156.020000
239.925003	156.240000
240.017761	156.960000
240.110535	157.640000
240.203308	157.240000
240.296082	157.040000
240.388855	156.900000
240.481628	157.040000
240.574417	157.060000
240.667191	157.360000
240.759964	157.060000
240.852737	156.820000
240.945526	156.180000
241.038315	155.420000
241.131088	155.640000
241.223877	156.060000
241.316650	155.880000
241.409439	156.420000
241.502228	156.600000
241.595001	156.840000
241.687790	156.620000
241.780579	157.060000
241.873367	156.980000
241.966141	157.260000
242.058929	156.440000
242.151718	156.760000
242.244507	157.040000
242.337311	156.260000
242.430099	156.400000
242.522903	156.920000
242.615692	156.480000
242.708481	156.260000
242.801270	157.040000
242.894073	156.840000
242.986862	156.960000
243.079651	157.520000
243.172455	157.180000
243.265244	156.900000
243.358063	156.380000
243.450867	156.560000
243.543655	156.540000
243.636459	156.620000
243.729263	157.080000
243.822067	157.680000
243.914856	158.000000
244.007660	157.660000
244.100464	157.620000
244.193268	156.980000
244.286072	156.720000
244.378876	155.880000
244.471680	155.600000
244.564499	156.160000
244.657318	156.760000
244.750122	157.160000
244.842926	156.780000
244.935745	157.520000
245.028549	156.800000
245.121368	156.360000
245.214172	156.240000
245.306992	156.860000
245.399796	156.160000
245.492615	156.660000
245.585434	156.940000
245.678253	156.820000
245.771072	156.920000
245.863892	157.580000
245.956711	157.360000
246.049530	156.840000
246.142349	156.280000
246.235168	156.240000
246.327988	156.540000
246.420807	156.380000
246.513626	156.540000
246.606445	156.580000
246.699280	156.500000
246.792099	155.940000
246.884918	155.800000
246.977753	155.380000
247.070587	155.640000
247.163422	155.380000
247.256241	155.280000
247.349075	155.700000
247.441895	156.300000
247.534729	156.320000
247.627563	156.400000
247.720383	157.040000
247.813217	156.680000
247.906052	156.360000
247.998886	156.440000
248.091736	156.540000
248.184570	156.040000
248.277405	156.260000
248.370239	157.280000
248.463074	158.340000
248.555908	158.540000
248.648743	158.480000
248.741592	158.620000
248.834427	157.840000
248.927261	156.360000
249.020111	156.520000
249.112946	156.960000
249.205795	156.580000
249.298630	156.580000
249.391495	156.540000
249.484344	156.100000
249.577179	156.100000
249.670029	156.420000
249.762878	156.540000
249.855728	156.940000
249.948563	156.980000
250.041412	156.280000
250.134262	156.480000
250.227112	156.720000
250.319962	156.880000
250.412827	156.960000
250.505692	156.820000
250.598541	156.780000
250.691391	156.160000
250.784241	155.800000
250.877106	155.840000
250.969955	155.780000
251.062805	156.300000
251.155670	156.980000
251.248520	156.960000
251.341385	157.120000
251.434235	156.960000
251.527100	156.160000
251.619965	155.500000
251.712814	156.640000
251.805695	156.320000
251.898560	156.800000
251.991425	157.060000
252.084290	157.340000
252.177155	156.100000
252.270020	156.280000
252.362885	156.100000
252.455750	156.000000
252.548615	155.780000
252.641479	155.860000
252.734360	155.440000
252.827240	155.400000
252.920105	155.600000
253.012970	155.220000
253.105850	155.280000
253.198715	155.680000
253.291595	155.980000
253.384460	155.700000
253.477341	156.120000
253.570221	156.740000
253.663086	156.080000
253.755966	156.740000
253.848846	156.800000
253.941727	157.300000
254.034592	156.640000
254.127472	156.400000
254.220367	155.940000
254.313248	155.980000
254.406128	155.220000
254.499008	155.980000
254.591904	157.100000
254.684784	157.580000
254.777664	157.380000
254.870544	157.400000
254.963440	156.980000
255.056335	156.920000
255.149216	156.380000
255.242111	157.000000
255.334991	157.580000
255.427887	157.420000
255.520767	157.440000
255.613663	157.640000
255.706558	156.780000
255.799438	156.380000
255.892334	156.100000
255.985229	155.840000
256.078125	155.420000
256.171021	155.960000
256.263916	156.460000
256.356812	156.620000
256.449707	157.020000
256.542603	156.940000
256.635498	157.120000
256.728394	156.880000
256.821289	156.880000
256.914215	156.920000
257.007080	157.020000
257.100006	157.020000
257.192932	157.140000
257.285828	157.660000
257.378723	157.060000
257.471619	156.740000
257.564545	156.180000
257.657440	156.260000
257.750336	156.540000
257.843262	156.460000
257.936157	158.180000
258.029053	158.740000
258.121979	158.560000
258.214874	157.820000
258.307800	157.700000
258.400696	156.400000
258.493622	156.120000
258.586517	155.400000
258.679443	155.780000
258.772339	155.680000
258.865265	155.620000
258.958160	155.160000
259.051086	156.300000
259.144012	156.000000
259.236938	157.040000
259.329834	156.980000
259.422791	156.820000
259.515717	156.100000
259.608612	155.940000
259.701538	155.860000
259.794464	155.820000
259.887390	156.360000
259.980316	156.160000
260.073212	156.120000
260.166138	154.920000
260.259064	155.160000
260.351990	155.800000
260.444916	156.060000
260.537842	156.520000
260.630768	157.540000
260.723694	157.300000
260.816620	156.960000
260.909546	156.820000
261.002472	156.460000
261.095398	155.780000
261.188354	155.780000
261.281281	155.080000
261.374207	155.460000
261.467133	156.060000
261.560089	156.300000
261.653015	156.040000
261.745972	157.100000
261.838867	157.260000
261.931824	157.360000
262.024780	156.900000
262.117706	157.360000
262.210663	157.140000
262.303589	156.940000
262.396515	156.620000
262.489471	157.680000
262.582397	157.360000
262.675354	156.860000
262.768280	156.960000
262.861237	157.040000
262.954163	156.740000
263.047119	157.240000
263.140045	157.160000
263.233002	156.940000
263.325958	156.820000
263.418884	156.180000
263.511841	155.840000
263.604797	155.900000
263.697723	155.980000
263.790680	155.760000
263.883636	156.280000
263.976593	156.340000
264.069550	156.480000
264.162476	156.240000
264.255463	156.620000
264.348419	156.580000
264.441376	156.620000
264.534332	155.800000
264.627289	156.160000
264.720245	156.380000
264.813202	155.460000
264.906158	155.600000
264.999115	156.640000
265.092072	156.560000
265.185028	156.740000
265.277985	157.560000
265.370941	157.500000
265.463898	157.000000
265.556854	156.900000
265.649811	156.120000
265.742798	156.120000
265.835754	155.960000
265.928711	156.640000
266.021667	156.440000
266.114655	156.680000
266.207611	157.140000
266.300568	156.840000
266.393585	156.040000
266.486511	156.280000
266.579498	155.820000
266.672485	155.500000
266.765442	155.280000
266.858429	156.080000
266.951385	155.700000
267.044342	155.940000
267.137329	155.780000
267.230316	156.540000
267.323273	155.860000
267.416260	156.600000
267.509216	156.160000
267.602203	155.900000
267.695160	156.060000
267.788147	156.360000
267.881134	155.840000
267.974091	156.380000
268.067078	156.680000
268.160065	156.480000
268.253052	156.360000
268.346008	156.360000
268.438995	156.180000
268.531982	156.320000
268.624969	155.840000
268.717987	156.080000
268.810944	155.980000
268.903961	156.140000
268.996948	155.460000
269.089905	156.240000
269.182892	156.080000
269.275879	156.660000
269.368866	156.140000
269.461853	156.840000
269.554871	156.560000
269.647858	156.560000
269.740845	156.460000
269.833832	157.120000
269.926819	156.700000
270.019806	156.540000
270.112793	156.100000
270.205811	156.360000
270.298798	156.160000
270.391785	156.680000
270.484772	156.640000
270.577789	157.000000
270.670776	156.200000
270.763763	155.920000
270.856750	155.760000
270.949768	155.640000
271.042786	155.500000
271.135773	155.600000
271.228790	156.140000
271.321808	155.920000
271.414795	155.580000
271.507782	155.380000
271.600800	155.320000
271.693817	155.240000
271.786804	155.500000
271.879822	155.980000
271.972809	156.160000
272.065826	156.860000
272.158844	156.440000
272.251831	157.040000
272.344849	156.820000
272.437866	156.560000
272.530853	156.360000
272.623871	156.660000
272.716888	155.320000
272.809906	155.720000
272.902893	155.880000
272.995911	155.380000
273.088928	155.000000
273.181946	155.720000
273.274963	155.260000
273.367981	155.360000
273.460999	155.420000
273.554047	156.280000
273.647003	156.820000
273.740051	156.980000
273.833069	157.700000
273.926086	158.180000
274.019135	157.660000
274.112152	157.100000
274.205170	157.080000
274.298187	156.580000
274.391205	155.960000
274.484222	155.900000
274.577240	155.620000
274.670258	155.600000
274.763306	155.580000
274.856323	156.080000
274.949341	156.120000
275.042358	156.820000
275.135406	156.860000
275.228424	156.840000
275.321442	156.840000
275.414490	156.640000
275.507507	156.720000
275.600525	157.040000
275.693573	156.840000
275.786591	156.520000
275.879669	156.880000
275.972656	156.520000
276.065735	156.160000
276.158752	156.840000
276.251801	157.680000
276.344818	157.680000
276.437866	157.520000
276.530884	157.240000
276.623932	156.140000
276.716980	156.240000
276.809998	156.280000
276.903046	156.320000
276.996094	157.780000
277.089111	158.700000
277.182159	158.760000
277.275208	158.240000
277.368256	158.280000
277.461304	157.220000
277.554321	156.660000
277.647369	156.060000
277.740417	156.480000
277.833466	156.280000
277.926514	156.120000
278.019562	156.640000
278.112610	156.020000
278.205688	156.120000
278.298706	156.160000
278.391785	156.220000
278.484833	155.600000
278.577881	156.080000
278.670929	156.220000
278.763977	156.440000
278.857025	156.740000
278.950073	157.100000
279.043121	156.780000
279.136169	156.580000
279.229248	156.360000
279.322296	156.600000
279.415344	156.460000
279.508392	156.520000
279.601440	156.360000
279.694519	156.220000
279.787567	155.780000
279.880615	155.620000
279.973694	155.680000
280.066742	155.900000
280.159790	156.140000
280.252869	155.620000
280.345917	155.840000
280.438995	155.800000
280.532074	155.700000
280.625122	156.180000
280.718201	157.680000
280.811279	157.680000
280.904327	157.660000
280.997406	157.700000
281.090454	157.540000
281.183533	156.400000
281.276581	156.180000
281.369659	155.820000
281.462738	155.800000
281.555786	155.680000
281.648865	156.040000
281.741943	156.140000
281.835022	157.060000
281.928070	157.220000
282.021149	156.900000
282.114227	156.700000
282.207306	156.620000
282.300385	156.680000
282.393433	156.740000
282.486511	156.880000
282.579590	157.600000
282.672668	158.420000
282.765747	157.740000
282.858856	157.080000
282.951904	157.320000
283.045013	157.000000
283.138062	156.660000
283.231171	157.020000
283.324249	157.860000
283.417328	157.800000
283.510406	157.320000
283.603485	156.900000
283.696564	156.660000
283.789642	156.420000
283.882751	156.180000
283.975830	156.820000
284.068909	156.720000
284.161987	157.240000
284.255066	156.460000
284.348175	156.420000
284.441254	155.900000
284.534332	156.580000
284.627441	156.080000
284.720520	156.160000
284.813599	156.420000
284.906708	157.000000
284.999786	156.160000
285.092896	156.060000
285.185974	157.120000
285.279053	156.340000
285.372192	156.180000
285.465240	157.060000
285.558380	157.060000
285.651459	156.640000
285.744568	157.800000
285.837677	157.500000
285.930756	157.200000
286.023865	157.120000
286.116943	156.600000
286.210052	156.460000
286.303162	156.340000
286.396240	156.100000
286.489349	155.760000
286.582458	156.380000
286.675568	155.880000
286.768646	155.820000
286.861755	156.340000
286.954865	157.620000
287.047974	157.040000
287.141083	156.820000
287.234161	156.860000
287.327271	156.300000
287.420380	156.300000
287.513519	156.080000
287.606598	156.180000
287.699738	156.320000
287.792816	156.280000
287.885956	155.980000
287.979034	156.160000
288.072174	156.200000
288.165283	156.120000
288.258392	156.160000
288.351501	155.520000
288.444611	155.880000
288.537720	156.460000
288.630859	156.420000
288.723969	156.600000
288.817078	157.080000
288.910187	156.620000
289.003296	156.120000
289.096436	155.540000
289.189545	155.500000
289.282654	154.900000
289.375763	155.540000
289.468903	155.900000
289.562012	156.780000
289.655121	156.720000
289.748260	157.220000
289.841400	157.360000
289.934509	157.240000
290.027649	157.220000
290.120728	157.280000
290.213898	157.200000
290.306976	156.880000
290.400146	156.880000
290.493256	156.100000
290.586395	156.240000
290.679535	156.520000
290.772644	156.580000
290.865784	155.840000
290.958893	156.180000
291.052032	155.760000
291.145172	155.620000
291.238281	155.060000
291.331421	155.240000
291.424561	155.660000
291.517670	155.660000
291.610809	155.840000
291.703949	155.780000
291.797089	156.480000
291.890228	156.000000
291.983337	156.040000
292.076477	155.500000
292.169617	156.140000
292.262756	155.680000
292.355927	155.640000
292.449036	155.720000
292.542206	155.760000
292.635315	155.920000
292.728485	156.480000
292.821625	156.280000
292.914764	157.200000
293.007904	157.620000
293.101044	157.500000
293.194183	157.120000
293.287323	157.680000
293.380463	156.940000
293.473602	156.480000
293.566742	156.640000
293.659882	157.020000
293.753021	157.240000
293.846191	156.940000
293.939331	156.820000
294.032471	156.540000
294.125610	156.140000
294.218781	156.260000
294.311920	157.180000
294.405060	157.640000
294.498230	157.680000
294.591370	157.720000
294.684540	156.780000
294.777679	155.720000
294.870850	155.900000
294.963959	155.880000
295.057159	155.740000
295.150299	156.360000
295.243469	156.620000
295.336609	156.060000
295.429779	156.100000
295.522919	156.560000
295.616089	156.720000
295.709229	157.560000
295.802399	157.800000
295.895569	157.480000
295.988708	157.240000
296.081879	157.360000
296.175018	156.600000
296.268188	156.540000
296.361359	157.140000
296.454529	157.280000
296.547668	156.720000
296.640839	157.080000
296.734009	156.820000
296.827179	156.960000
296.920319	156.940000
297.013519	156.960000
297.106659	157.180000
297.199860	157.080000
297.292999	156.560000
297.386200	156.120000
297.479309	156.000000
297.572510	155.660000
297.665680	155.640000
297.758850	155.820000
297.852020	156.020000
297.945190	155.700000
298.038361	155.440000
298.131531	156.780000
298.224701	156.520000
298.317871	156.160000
298.411072	156.300000
298.504242	156.080000
298.597412	155.300000
298.690582	155.680000
298.783752	155.880000
298.876923	156.420000
298.970093	156.740000
299.063293	157.000000
299.156464	157.260000
299.249634	157.600000
299.342834	157.480000
299.436005	157.700000
299.529205	157.260000
299.622345	157.000000
299.715576	156.340000
299.808716	156.120000
299.901917	156.240000
299.995117	156.640000
300.088287	156.540000
300.181488	156.580000
300.274658	156.680000
300.367828	156.440000
300.461029	156.220000
300.554199	156.540000
300.647400	156.660000
300.740601	157.100000
300.833771	156.780000
300.926971	156.980000
301.020142	156.400000
301.113342	156.620000
301.206512	156.120000
301.299713	156.680000
301.392914	156.480000
301.486084	156.760000
301.579285	156.560000
301.672516	157.080000
301.765686	156.480000
301.858887	156.360000
301.952057	156.560000
302.045288	156.840000
302.138458	156.700000
302.231659	156.760000
302.324860	156.680000
302.418060	156.080000
302.511261	156.000000
302.604462	156.200000
302.697662	156.040000
302.790863	155.800000
302.884064	155.740000
302.977264	155.700000
303.070465	155.380000
303.163666	156.460000
303.256866	157.040000
303.350067	157.240000
303.443268	157.560000
303.536469	157.920000
303.629669	157.100000
303.722870	156.960000
303.816071	156.820000
303.909271	156.320000
304.002472	155.380000
304.095673	155.020000
304.188934	154.580000
304.282104	155.380000
304.375336	155.720000
304.468506	155.900000
304.561768	156.080000
304.654968	156.860000
304.748169	156.200000
304.841370	156.080000
304.934601	156.740000
305.027802	156.680000
305.121002	156.080000
305.214233	156.280000
305.307434	156.220000
305.400665	157.060000
305.493866	156.900000
305.587097	157.440000
305.680298	157.200000
305.773499	157.440000
305.866730	156.620000
305.959930	157.420000
306.053162	157.580000
306.146393	157.580000
306.239594	156.900000
306.332825	156.780000
306.426025	156.760000
306.519287	156.200000
306.612488	156.120000
306.705719	156.560000
306.798920	156.680000
306.892181	155.980000
306.985352	155.660000
307.078613	155.220000
307.171844	155.280000
307.265045	154.580000
307.358276	154.660000
307.451508	154.960000
307.544739	155.960000
307.637970	155.600000
307.731201	155.640000
307.824402	156.460000
307.917633	156.800000
308.010864	156.920000
308.104095	157.560000
308.197327	157.820000
308.290558	157.640000
308.383789	157.040000
308.477020	156.420000
308.570251	155.600000
308.663483	155.420000
308.756714	154.780000
308.849976	155.240000
308.943176	155.840000
309.036438	155.860000
309.129639	155.540000
309.222900	155.820000
309.316101	155.500000
309.409393	154.780000
309.502625	154.740000
309.595856	155.120000
309.689087	155.100000
309.782318	155.360000
309.875580	155.500000
309.968811	155.820000
310.062042	155.640000
310.155273	155.520000
310.248535	155.680000
310.341766	155.780000
310.434998	155.500000
310.528259	155.760000
310.621490	156.100000
310.714722	155.400000
310.807983	155.660000
310.901215	155.860000
310.994476	155.820000
311.087708	155.300000
311.181000	155.680000
311.274200	155.100000
311.367462	155.460000
311.460693	155.240000
311.553986	156.440000
311.647186	156.740000
311.740479	157.540000
311.833710	156.940000
311.926971	157.300000
312.020203	156.160000
312.113464	155.780000
312.206726	154.980000
312.299957	155.600000
312.393219	156.040000
312.486481	156.360000
312.579712	156.560000
312.672974	156.820000
312.766235	156.380000
312.859497	155.660000
312.952759	155.500000
313.045990	156.240000
313.139252	155.600000
313.232513	155.940000
313.325775	156.100000
313.419037	156.020000
313.512299	154.980000
313.605530	156.300000
313.698822	156.340000
313.792053	156.600000
313.885345	156.320000
313.978577	156.700000
314.071869	155.780000
314.165131	155.840000
314.258392	155.720000
314.351654	156.000000
314.444916	155.500000
314.538177	156.160000
314.631439	156.260000
314.724701	156.080000
314.817993	156.220000
314.911255	156.480000
315.004517	155.800000
315.097778	155.580000
315.191040	156.080000
315.284302	156.000000
315.377594	155.840000
315.470856	155.920000
315.564117	155.160000
315.657379	154.700000
315.750671	154.480000
315.843933	154.960000
315.937195	154.540000
316.030518	154.860000
316.123749	154.800000
316.217041	155.620000
316.310303	155.300000
316.403595	156.080000
316.496857	156.480000
316.590149	156.980000
316.683411	156.240000
316.776703	155.960000
316.869965	155.740000
316.963257	155.540000
317.056519	154.740000
317.149811	154.680000
317.243073	154.780000
317.336365	154.940000
317.429626	155.340000
317.522919	155.760000
317.616180	155.940000
317.709473	155.780000
317.802765	155.360000
317.896027	155.380000
317.989319	155.780000
318.082611	155.560000
318.175873	155.460000
318.269165	155.780000
318.362488	155.540000
318.455750	155.000000
318.549042	155.600000
318.642303	156.880000
318.735626	156.600000
318.828888	156.720000
318.922211	156.360000
319.015472	156.620000
319.108765	155.140000
319.202057	155.200000
319.295349	155.520000
319.388641	155.800000
319.481934	155.440000
319.575226	155.880000
319.668518	156.260000
319.761810	156.280000
319.855103	156.540000
319.948395	156.680000
320.041687	156.960000
320.134979	156.640000
320.228271	156.080000
320.321564	155.860000
320.414856	155.660000
320.508148	155.000000
320.601440	155.000000
320.694763	154.880000
320.788025	155.800000
320.881348	155.820000
320.974640	155.880000
321.067963	155.440000
321.161224	155.620000
321.254547	154.780000
321.347839	155.320000
321.441162	155.480000
321.534454	155.840000
321.627747	155.680000
321.721069	156.200000
321.814362	156.220000
321.907654	156.380000
322.000946	156.440000
322.094269	156.980000
322.187561	156.600000
322.280884	156.800000
322.374176	157.100000
322.467468	157.520000
322.560791	157.420000
322.654083	157.900000
322.747406	157.580000
322.840698	157.660000
322.934021	157.920000
323.027344	158.140000
323.120636	157.760000
323.213959	157.780000
323.307251	157.340000
323.400574	156.760000
323.493866	156.200000
323.587219	156.260000
323.680511	156.400000
323.773834	156.720000
323.867157	156.860000
323.960449	157.160000
324.053772	157.240000
324.147095	157.060000
324.240387	157.460000
324.333710	157.540000
324.427032	157.300000
324.520355	157.020000
324.613647	156.280000
324.706970	155.460000
324.800293	155.220000
324.893616	155.620000
324.986938	155.940000
325.080231	156.240000
325.173553	157.140000
325.266876	157.860000
325.360199	157.840000
325.453522	157.240000
325.546875	156.860000
325.640167	156.620000
325.733521	156.400000
325.826813	156.540000
325.920166	156.400000
326.013489	156.660000
326.106812	155.800000
326.200134	154.980000
326.293457	154.260000
326.386780	154.760000
326.480103	154.720000
326.573425	154.980000
326.666748	155.520000
326.760071	156.200000
326.853424	156.340000
326.946747	156.520000
327.040070	157.360000
327.133392	157.040000
327.226715	156.240000
327.320068	155.680000
327.413391	156.180000
327.506714	155.300000
327.600037	155.480000
327.693390	155.740000
327.786713	155.820000
327.880066	155.180000
327.973358	155.880000
328.066742	156.540000
328.160034	156.860000
328.253418	157.320000
328.346710	157.080000
328.440063	156.020000
328.533417	155.260000
328.626740	155.320000
328.720093	155.100000
328.813416	155.500000
328.906769	155.860000
329.000092	156.040000
329.093445	156.060000
329.186768	155.960000
329.280121	156.340000
329.373444	156.840000
329.466797	156.800000
329.560120	156.920000
329.653473	156.960000
329.746796	156.380000
329.840149	155.920000
329.933502	155.740000
330.026825	155.480000
330.120178	155.340000
330.213562	155.320000
330.306854	155.440000
330.400238	155.660000
330.493561	155.420000
330.586945	156.120000
330.680237	156.620000
330.773621	156.780000
330.866974	156.740000
330.960327	157.160000
331.053680	156.740000
331.147003	156.720000
331.240356	157.140000
331.333710	157.080000
331.427063	156.860000
331.520416	157.040000
331.613770	156.540000
331.707123	156.480000
331.800476	156.840000
331.893829	157.740000
331.987152	157.420000
332.080505	157.580000
332.173859	157.160000
332.267212	156.460000
332.360565	155.360000
332.453918	155.120000
332.547333	154.920000
332.640656	155.060000
332.734039	155.500000
332.827362	155.560000
332.920746	156.200000
333.014069	156.720000
333.107452	157.040000
333.200806	157.060000
333.294159	157.460000
333.387543	156.780000
333.480896	156.080000
333.574249	155.540000
333.667603	155.600000
333.760956	155.640000
333.854340	155.960000
333.947693	156.280000
334.041046	156.400000
334.134430	156.600000
334.227783	156.300000
334.321136	156.220000
334.414520	155.920000
334.507874	156.020000
334.601227	155.920000
334.694611	155.840000
334.787964	155.800000
334.881348	156.480000
334.974701	156.480000
335.068085	155.920000
335.161438	156.300000
335.254822	156.340000
335.348175	156.040000
335.441559	155.400000
335.534943	156.300000
335.628296	155.860000
335.721680	155.980000
335.815033	156.340000
335.908417	157.140000
336.001770	156.860000
336.095154	156.620000
336.188538	156.180000
336.281891	155.440000
336.375275	154.920000
336.468658	154.620000
336.562012	155.040000
336.655396	155.680000
336.748779	156.240000
336.842133	156.420000
336.935516	156.560000
337.028900	156.000000
337.122284	155.420000
337.215637	155.480000
337.309021	155.400000
337.402435	155.140000
337.495789	155.500000
337.589203	156.060000
337.682526	155.560000
337.775940	155.940000
337.869324	156.180000
337.962708	155.780000
338.056091	156.000000
338.149475	155.860000
338.242859	155.800000
338.336243	155.420000
338.429626	156.280000
338.523010	155.920000
338.616394	156.020000
338.709778	155.940000
338.803162	156.420000
338.896545	156.020000
338.989929	155.660000
339.083313	155.800000
339.176697	155.500000
339.270081	155.160000
339.363464	155.500000
339.456848	155.780000
339.550232	155.600000
339.643616	155.500000
339.737030	155.680000
339.830383	155.380000
339.923828	155.480000
340.017181	155.680000
340.110596	156.060000
340.203949	155.840000
340.297363	155.640000
340.390778	155.500000
340.484161	155.440000
340.577545	155.380000
340.670959	155.460000
340.764343	155.520000
340.857727	155.420000
340.951111	155.220000
341.044525	155.260000
341.137909	154.740000
341.231293	154.700000
341.324707	154.480000
341.418091	155.360000
341.511505	155.620000
341.604889	156.340000
341.698303	156.540000
341.791687	156.960000
341.885071	156.320000
341.978485	155.880000
342.071899	155.860000
342.165283	156.000000
342.258698	156.080000
342.352081	156.780000
342.445496	157.500000
342.538879	157.500000
342.632324	157.220000
342.725708	157.160000
342.819122	156.300000
342.912506	155.580000
343.005920	155.360000
343.099335	156.120000
343.192719	156.040000
343.286133	156.260000
343.379547	156.720000
343.472931	157.060000
343.566345	156.300000
343.659760	156.760000
343.753143	156.560000
343.846558	156.200000
343.939972	155.760000
344.033386	156.420000
344.126770	155.800000
344.220184	156.020000
344.313599	156.300000
344.407043	156.480000
344.500427	155.780000
344.593872	156.540000
344.687225	156.180000
344.780670	155.760000
344.874054	155.780000
344.967499	156.060000
345.060913	155.880000
345.154327	156.080000
345.247742	156.140000
345.341156	155.840000
345.434570	155.660000
345.527985	155.220000
345.621399	155.340000
345.714813	155.340000
345.808228	155.760000
345.901642	155.620000
345.995056	155.600000
346.088470	155.500000
346.181885	155.740000
346.275299	155.320000
346.368713	155.340000
346.462128	155.020000
346.555573	155.140000
346.648987	155.260000
346.742401	155.260000
346.835815	156.040000
346.929260	155.900000
347.022644	155.780000
347.116119	155.620000
347.209503	156.280000
347.302948	156.640000
347.396362	157.560000
347.489807	157.860000
347.583221	158.340000
347.676636	157.840000
347.770050	156.520000
347.863495	155.840000
347.956909	155.680000
348.050323	155.240000
348.143768	155.520000
348.237183	155.680000
348.330597	156.340000
348.424042	156.660000
348.517456	156.880000
348.610901	157.020000
348.704315	157.080000
348.797760	156.400000
348.891174	155.940000
348.984619	155.460000
349.078033	155.560000
349.171448	156.180000
349.264923	156.000000
349.358337	155.740000
349.451782	155.960000
349.545197	155.420000
349.638641	154.640000
349.732086	154.420000
349.825500	155.240000
349.918945	154.860000
350.012390	155.240000
350.105804	156.000000
350.199249	156.680000
350.292664	156.740000
350.386108	156.880000
350.479553	157.280000
350.572968	156.780000
350.666412	156.980000
350.759857	156.880000
350.853302	157.520000
350.946716	156.920000
351.040161	157.060000
351.133606	157.120000
351.227081	156.920000
351.320465	157.340000
351.413940	157.580000
351.507355	157.880000
351.600830	157.620000
351.694244	157.220000
351.787720	156.860000
351.881104	156.760000
351.974579	156.340000
352.067993	157.080000
352.161469	157.360000
352.254883	156.680000
352.348358	156.340000
352.441803	156.540000
352.535248	156.100000
352.628693	156.600000
352.722137	156.560000
352.815582	157.280000
352.909027	157.600000
353.002472	157.380000
353.095917	156.780000
353.189362	157.200000
353.282806	156.700000
353.376251	155.920000
353.469696	155.260000
353.563141	155.980000
353.656586	155.660000
353.750061	155.220000
353.843475	155.620000
353.936981	156.380000
354.030396	155.480000
354.123871	155.620000
354.217285	156.600000
354.310760	156.640000
354.404175	156.480000
354.497681	156.340000
354.591095	156.480000
354.684570	155.440000
354.777985	155.200000
354.871490	155.260000
354.964935	156.140000
355.058380	156.000000
355.151855	155.700000
355.245300	156.340000
355.338745	156.720000
355.432220	156.100000
355.525665	155.620000
355.619110	156.620000
355.712585	156.160000
355.806030	155.640000
355.899475	155.440000
355.992950	156.180000
356.086426	156.600000
356.179871	156.560000
356.273346	156.700000
356.366791	157.200000
356.460266	157.180000
356.553711	156.320000
356.647186	156.540000
356.740631	156.480000
356.834106	156.160000
356.927551	156.000000
357.021027	156.040000
357.114471	155.940000
357.207947	155.660000
357.301422	156.000000
357.394867	155.880000
357.488342	156.260000
357.581818	156.220000
357.675262	156.840000
357.768738	156.340000
357.862213	155.760000
357.955658	155.800000
358.049133	155.740000
358.142609	155.820000
358.236053	155.900000
358.329529	156.560000
358.423035	156.720000
358.516449	156.060000
358.609955	156.320000
358.703400	157.180000
358.796906	157.180000
358.890350	156.360000
358.983826	157.340000
359.077271	156.540000
359.170776	156.180000
359.264221	155.980000
359.357727	156.340000
359.451172	156.180000
359.544647	156.040000
359.638123	155.620000
359.731598	155.860000
359.825073	156.300000
359.918549	156.220000
360.012024	156.420000
360.105499	155.880000
360.198975	155.880000
360.292450	155.700000
360.385925	155.560000
360.479401	155.080000
360.572876	155.720000
360.666351	155.900000
360.759857	155.660000
360.853302	155.760000
360.946808	155.660000
361.040253	155.620000
361.133759	155.400000
361.227203	155.680000
361.320709	155.300000
361.414154	155.860000
361.507660	156.200000
361.601105	156.580000
361.694641	156.980000
361.788086	157.080000
361.881592	157.520000
361.975067	157.220000
362.068542	157.380000
362.162018	156.980000
362.255524	156.760000
362.348999	156.480000
362.442474	156.620000
362.535950	155.820000
362.629456	155.620000
362.722931	155.700000
362.816406	156.080000
362.909882	156.500000
363.003387	156.660000
363.096863	157.140000
363.190338	157.140000
363.283875	156.600000
363.377319	155.960000
363.470825	156.360000
363.564301	155.580000
363.657806	155.980000
363.751282	155.720000
363.844788	156.880000
363.938232	156.320000
364.031769	157.040000
364.125214	156.980000
364.218750	157.680000
364.312225	156.340000
364.405731	156.700000
364.499207	156.040000
364.592712	155.860000
364.686188	155.680000
364.779694	155.900000
364.873169	155.580000
364.966675	155.780000
365.060150	155.660000
365.153656	156.040000
365.247131	156.020000
365.340637	156.440000
365.434143	156.980000
365.527618	157.520000
365.621155	156.180000
365.714600	156.400000
365.808136	156.180000
365.901611	154.940000
365.995117	154.400000
366.088593	155.140000
366.182129	154.920000
366.275604	155.140000
366.369110	155.780000
366.462585	155.920000
366.556122	156.780000
366.649567	156.740000
366.743103	156.680000
366.836609	156.540000
366.930115	156.800000
367.023590	156.360000
367.117096	156.240000
367.210602	156.380000
367.304108	157.280000
367.397614	157.600000
367.491119	157.520000
367.584595	157.920000
367.678101	158.180000
367.771606	157.440000
367.865112	156.960000
367.958649	156.180000
368.052124	155.760000
368.145660	155.120000
368.239136	155.700000
368.332672	155.960000
368.426147	156.540000
368.519684	156.760000
368.613159	157.120000
368.706696	156.440000
368.800171	156.100000
368.893707	155.900000
368.987183	156.020000
369.080719	156.120000
369.174225	156.220000
369.267731	156.600000
369.361237	156.800000
369.454742	156.660000
369.548248	156.980000
369.641754	156.740000
369.735260	156.600000
369.828766	155.920000
369.922272	156.640000
370.015808	155.860000
370.109314	155.640000
370.202820	155.420000
370.296356	156.540000
370.389832	155.880000
370.483368	155.840000
370.576874	156.180000
370.670410	156.440000
370.763885	155.440000
370.857422	155.540000
370.950928	155.300000
371.044464	156.060000
371.137939	155.840000
371.231476	156.680000
371.324982	157.040000
371.418518	157.700000
371.512024	157.380000
371.605560	157.320000
371.699066	157.220000
371.792572	156.740000
371.886108	156.640000
371.979614	156.640000
372.073120	157.160000
372.166656	156.920000
372.260162	157.060000
372.353668	156.900000
372.447205	156.280000
372.540710	156.080000
372.634277	156.060000
372.727753	156.320000
372.821320	156.500000
372.914795	156.560000
373.008362	156.280000
373.101837	156.320000
373.195404	155.780000
373.288879	155.620000
373.382446	156.460000
373.475922	156.420000
373.569489	157.040000
373.662964	157.540000
373.756531	157.440000
373.850037	157.260000
373.943573	157.200000
374.037109	156.120000
374.130615	156.440000
374.224152	156.660000
374.317657	156.420000
374.411194	157.260000
374.504730	157.200000
374.598236	156.420000
374.691772	156.140000
374.785309	156.420000
374.878815	155.440000
374.972351	156.000000
375.065887	156.160000
375.159454	157.060000
375.252930	156.400000
375.346497	156.940000
375.440002	157.400000
375.533569	157.440000
375.627045	156.620000
375.720612	156.900000
375.814117	157.120000
375.907684	156.360000
376.001160	156.040000
376.094727	155.740000
376.188232	156.380000
376.281799	156.100000
376.375336	156.280000
376.468872	157.220000
376.562408	157.320000
376.655914	156.640000
376.749451	156.900000
376.842987	157.380000
376.936523	156.920000
377.030060	157.460000
377.123596	157.820000
377.217133	156.680000
377.310669	156.340000
377.404205	156.580000
377.497772	156.640000
377.591278	156.280000
377.684845	157.720000
377.778351	157.980000
377.871918	157.420000
377.965424	156.460000
378.058990	156.060000
378.152496	155.360000
378.246063	155.440000
378.339569	156.060000
378.433136	156.540000
378.526642	156.920000
378.620209	157.020000
378.713745	156.600000
378.807312	156.540000
378.900848	156.460000
378.994385	156.780000
379.087921	156.120000
379.181458	156.460000
379.274994	156.000000
379.368530	155.940000
379.462097	156.060000
379.555634	156.800000
379.649170	155.880000
379.742706	155.620000
379.836273	155.920000
379.929810	155.680000
380.023376	155.220000
380.116882	155.500000
380.210449	155.860000
380.303986	155.540000
380.397552	154.860000
380.491058	155.340000
380.584656	155.240000
380.678162	155.280000
380.771729	155.480000
380.865265	156.280000
380.958832	156.060000
381.052368	156.480000
381.145935	156.700000
381.239471	157.180000
381.333008	157.120000
381.426575	157.200000
381.520111	157.460000
381.613647	157.460000
381.707214	157.100000
381.800751	156.360000
381.894318	156.640000
381.987854	155.860000
382.081421	155.580000
382.174988	155.580000
382.268524	155.860000
382.362091	155.520000
382.455627	156.640000
382.549194	156.480000
382.642731	155.900000
382.736298	155.760000
382.829834	155.480000
382.923401	155.940000
383.016937	156.460000
383.110504	157.060000
383.204041	157.220000
383.297607	157.920000
383.391174	156.480000
383.484741	156.640000
383.578278	156.020000
383.671844	156.040000
383.765411	155.140000
383.858948	155.940000
383.952515	155.840000
384.046051	156.620000
384.139618	157.000000
384.233185	157.460000
384.326721	156.980000
384.420288	157.240000
384.513855	157.120000
384.607422	157.160000
384.700989	157.360000
384.794525	156.920000
384.888123	156.600000
384.981659	156.580000
385.075226	156.280000
385.168762	155.660000
385.262360	156.320000
385.355896	155.200000
385.449463	155.040000
385.542999	154.840000
385.636597	155.920000
385.730164	155.960000
385.823730	156.280000
385.917267	155.860000
386.010834	156.240000
386.104401	155.820000
386.197968	156.200000
386.291534	157.160000
386.385101	157.280000
386.478668	157.460000
386.572235	157.300000
386.665802	156.340000
386.759338	155.560000
386.852905	155.540000
386.946472	155.060000
387.040070	155.100000
387.133606	155.220000
387.227203	155.280000
387.320740	155.760000
387.414337	155.600000
387.507874	155.540000
387.601471	155.700000
387.695007	155.400000
387.788605	154.920000
387.882141	155.320000
387.975739	155.380000
388.069275	155.300000
388.162872	155.700000
388.256439	155.860000
388.350037	155.280000
388.443604	155.080000
388.537170	155.120000
388.630737	155.700000
388.724304	155.800000
388.817871	156.220000
388.911438	156.060000
389.005005	156.100000
389.098602	156.120000
389.192169	155.620000
389.285736	156.200000
389.379333	156.280000
389.472870	156.140000
389.566467	155.980000
389.660034	156.400000
389.753632	155.380000
389.847168	156.180000
389.940765	156.280000
390.034332	156.160000
390.127930	155.520000
390.221466	155.660000
390.315063	155.020000
390.408630	154.420000
390.502228	153.860000
390.595795	154.700000
390.689362	155.040000
390.782959	155.420000
390.876526	156.200000
390.970093	156.280000
391.063690	156.280000
391.157257	156.360000
391.250824	156.380000
391.344421	156.020000
391.437988	156.100000
391.531555	156.320000
391.625153	156.540000
391.718750	156.800000
391.812317	156.700000
391.905914	156.560000
391.999481	156.380000
392.093079	156.260000
392.186615	156.480000
392.280243	156.680000
392.373779	157.280000
392.467407	157.780000
392.560944	157.600000
392.654572	156.660000
392.748108	156.820000
392.841736	156.680000
392.935303	155.900000
393.028900	155.900000
393.122467	156.080000
393.216064	155.820000
393.309631	155.240000
393.403229	155.240000
393.496796	154.840000
393.590393	154.280000
393.683990	154.720000
393.777557	155.500000
393.871155	155.940000
393.964722	156.480000
394.058350	156.860000
394.151917	156.740000
394.245514	156.080000
394.339081	156.560000
394.432678	157.040000
394.526245	157.340000
394.619873	156.880000
394.713409	157.300000
394.807037	156.580000
394.900604	156.460000
394.994202	156.420000
395.087769	156.900000
395.181396	156.480000
395.274994	157.420000
395.368561	156.780000
395.462158	156.680000
395.555756	156.420000
395.649353	156.840000
395.742920	155.940000
395.836517	156.700000
395.930115	155.960000
396.023712	156.020000
396.117279	156.240000
396.210876	155.780000
396.304474	155.160000
396.398071	155.880000
396.491669	156.220000
396.585266	155.700000
396.678833	155.720000
396.772461	156.040000
396.866028	155.600000
396.959656	155.240000
397.053223	155.680000
397.146851	155.640000
397.240417	155.380000
397.334015	156.280000
397.427582	156.380000
397.521210	156.080000
397.614807	156.660000
397.708405	157.060000
397.802002	156.760000
397.895599	156.960000
397.989197	156.940000
398.082794	157.020000
398.176392	157.100000
398.269989	157.420000
398.363586	157.620000
398.457184	158.540000
398.550781	158.780000
398.644379	158.680000
398.737976	158.840000
398.831573	159.900000
398.925201	160.880000
399.018768	164.060000
399.112396	169.360000
399.205963	177.640000
399.299591	191.120000
399.393158	213.920000
399.486786	255.260000
399.580353	331.100000
399.673981	462.620000
399.767578	661.500000
399.861206	910.480000
399.954773	1166.000000
400.048401	1359.620000
400.141998	1436.540000
400.235596	1373.560000
400.329193	1194.620000
400.422791	950.140000
400.516418	706.600000
400.610016	507.140000
400.703613	367.760000
400.797211	279.200000
400.890808	228.280000
400.984436	200.040000
401.078033	184.960000
401.171631	175.560000
401.265259	170.840000
401.358826	167.240000
401.452484	165.240000
401.546051	163.560000
401.639679	162.060000
401.733246	161.560000
401.826904	160.640000
401.920471	159.160000
402.014099	158.500000
402.107697	158.280000
402.201324	157.960000
402.294891	158.060000
402.388550	158.460000
402.482147	158.480000
402.575745	158.080000
402.669373	157.560000
402.762970	157.120000
402.856567	157.200000
402.950195	157.320000
403.043793	157.180000
403.137390	157.980000
403.231018	157.140000
403.324615	157.520000
403.418243	156.780000
403.511841	157.460000
403.605469	156.840000
403.699066	157.680000
403.792694	157.220000
403.886292	157.280000
403.979919	156.880000
404.073517	156.480000
404.167145	156.520000
404.260712	156.480000
404.354370	156.400000
404.447937	156.600000
404.541595	156.880000
404.635162	156.680000
404.728821	156.880000
404.822418	156.440000
404.916046	155.920000
405.009644	156.160000
405.103271	156.420000
405.196899	156.120000
405.290497	156.860000
405.384125	157.400000
405.477722	156.660000
405.571350	156.300000
405.664948	156.620000
405.758575	156.160000
405.852203	155.700000
405.945801	155.940000
406.039429	156.100000
406.133057	155.760000
406.226654	156.020000
406.320312	155.940000
406.413879	156.100000
406.507538	156.180000
406.601135	155.660000
406.694763	155.900000
406.788361	156.320000
406.882019	156.160000
406.975586	156.340000
407.069244	157.180000
407.162872	156.920000
407.256470	156.380000
407.350098	156.220000
407.443726	155.880000
407.537323	155.280000
407.630951	155.620000
407.724579	155.520000
407.818207	156.060000
407.911804	155.760000
408.005432	155.780000
408.099060	155.700000
408.192688	156.320000
408.286285	156.200000
408.379913	156.160000
408.473572	156.280000
408.567169	155.540000
408.660828	155.300000
408.754395	154.940000
408.848053	154.920000
408.941650	155.080000
409.035309	154.960000
409.128906	154.900000
409.222565	155.140000
409.316132	155.660000
409.409790	155.320000
409.503387	155.460000
409.597046	155.580000
409.690674	155.500000
409.784302	155.200000
409.877930	155.300000
409.971558	155.620000
410.065186	155.620000
410.158783	155.600000
410.252411	155.600000
410.346039	156.040000
410.439667	156.200000
410.533295	156.240000
410.626923	156.400000
410.720551	156.120000
410.814209	156.400000
410.907806	156.340000
411.001465	155.780000
411.095062	156.060000
411.188721	156.240000
411.282318	155.500000
411.375977	155.020000
411.469574	155.620000
411.563232	154.960000
411.656830	154.980000
411.750488	155.120000
411.844086	155.440000
411.937744	155.580000
412.031372	155.820000
412.125000	155.800000
412.218628	155.600000
412.312256	156.280000
412.405884	156.480000
412.499512	156.240000
412.593170	156.620000
412.686798	156.760000
412.780426	155.720000
412.874054	155.580000
412.967682	155.460000
413.061310	155.800000
413.154968	156.300000
413.248566	156.700000
413.342224	156.300000
413.435852	156.700000
413.529510	156.080000
413.623108	154.960000
413.716766	154.800000
413.810364	155.560000
413.904022	155.340000
413.997650	155.060000
414.091309	156.400000
414.184906	156.480000
414.278564	155.680000
414.372192	156.080000
414.465851	156.720000
414.559479	155.860000
414.653107	156.580000
414.746735	156.420000
414.840393	156.240000
414.934021	156.520000
415.027649	156.460000
415.121277	155.980000
415.214935	156.620000
415.308563	156.700000
415.402191	155.480000
415.495850	155.640000
415.589478	155.580000
415.683136	155.080000
415.776733	155.200000
415.870422	156.380000
415.964020	155.680000
416.057678	155.760000
416.151306	155.940000
416.244965	155.620000
416.338562	155.220000
416.432251	156.360000
416.525848	157.020000
416.619507	157.500000
416.713165	157.980000
416.806793	157.880000
416.900421	157.820000
416.994080	156.960000
417.087708	156.480000
417.181366	155.720000
417.274994	155.720000
417.368622	155.940000
417.462280	156.540000
417.555908	156.860000
417.649567	157.040000
417.743195	157.300000
417.836853	157.200000
417.930481	157.140000
418.024170	157.360000
418.117767	157.680000
418.211426	157.620000
418.305054	157.480000
418.398712	156.660000
418.492340	156.280000
418.585999	156.740000
418.679626	156.600000
418.773285	156.540000
418.866913	157.520000
418.960571	157.800000
419.054230	157.240000
419.147858	157.400000
419.241516	157.500000
419.335144	156.620000
419.428802	156.360000
419.522461	156.340000
419.616089	155.720000
419.709747	155.740000
419.803375	156.120000
419.897034	155.540000
419.990662	155.660000
420.084320	156.280000
420.177979	156.440000
420.271606	156.420000
420.365295	157.120000
420.458893	157.240000
420.552582	157.260000
420.646210	156.980000
420.739868	156.820000
420.833496	156.480000
420.927155	155.880000
421.020782	155.520000
421.114471	154.960000
421.208069	155.160000
421.301758	155.400000
421.395386	155.840000
421.489044	155.960000
421.582703	156.340000
421.676361	157.080000
421.769989	156.860000
421.863647	157.040000
421.957306	157.120000
422.050934	157.180000
422.144592	156.720000
422.238251	156.500000
422.331909	156.340000
422.425537	156.300000
422.519196	156.320000
422.612854	155.660000
422.706543	155.700000
422.800140	155.980000
422.893829	155.540000
422.987457	154.920000
423.081146	155.260000
423.174744	155.600000
423.268433	155.040000
423.362061	155.120000
423.455750	155.220000
423.549347	155.480000
423.643036	155.120000
423.736664	155.940000
423.830353	156.140000
423.924011	157.040000
424.017639	156.480000
424.111298	156.380000
424.204956	155.860000
424.298615	156.100000
424.392273	155.760000
424.485931	156.000000
424.579559	156.540000
424.673218	156.600000
424.766876	156.800000
424.860535	156.400000
424.954193	156.200000
425.047882	156.380000
425.141510	156.340000
425.235199	155.900000
425.328796	156.060000
425.422485	155.920000
425.516113	155.140000
425.609802	155.180000
425.703430	155.420000
425.797119	155.040000
425.890747	155.560000
425.984436	155.600000
426.078064	155.540000
426.171753	155.500000
426.265411	155.620000
426.359070	155.560000
426.452728	155.740000
426.546356	155.600000
426.640015	155.460000
426.733673	155.560000
426.827332	154.940000
426.920990	155.760000
427.014648	155.600000
427.108307	155.840000
427.201965	156.300000
427.295624	157.060000
427.389282	156.300000
427.482941	156.600000
427.576630	156.340000
427.670258	155.700000
427.763947	155.160000
427.857574	155.020000
427.951263	155.020000
428.044922	155.060000
428.138611	155.560000
428.232239	156.360000
428.325928	157.040000
428.419556	157.560000
428.513245	157.460000
428.606903	157.500000
428.700562	156.840000
428.794220	156.020000
428.887878	155.120000
428.981537	155.740000
429.075195	155.700000
429.168854	156.360000
429.262512	156.840000
429.356201	157.160000
429.449860	156.900000
429.543518	157.140000
429.637177	156.980000
429.730835	156.660000
429.824493	156.700000
429.918182	156.740000
430.011810	156.180000
430.105530	155.900000
430.199158	156.260000
430.292847	156.360000
430.386475	156.100000
430.480164	156.140000
430.573792	155.680000
430.667511	155.680000
430.761139	155.500000
430.854828	156.100000
430.948456	156.420000
431.042145	157.240000
431.135834	157.040000
431.229492	157.280000
431.323151	157.280000
431.416809	157.000000
431.510468	156.840000
431.604156	156.620000
431.697815	156.500000
431.791473	155.660000
431.885132	155.520000
431.978821	155.940000
432.072479	156.460000
432.166138	156.720000
432.259827	157.080000
432.353485	157.560000
432.447174	157.340000
432.540802	156.900000
432.634491	157.100000
432.728149	157.460000
432.821838	157.900000
432.915466	157.240000
433.009186	157.600000
433.102814	157.000000
433.196503	156.680000
433.290131	156.420000
433.383850	156.880000
433.477509	156.700000
433.571167	157.760000
433.664856	158.240000
433.758514	158.500000
433.852173	158.460000
433.945862	158.300000
434.039520	157.780000
434.133179	157.160000
434.226868	156.540000
434.320526	156.220000
434.414185	156.960000
434.507874	156.460000
434.601562	156.820000
434.695221	156.720000
434.788910	156.820000
434.882538	156.820000
434.976257	156.600000
435.069885	156.800000
435.163574	157.180000
435.257233	157.100000
435.350922	157.000000
435.444580	156.960000
435.538269	156.560000
435.631897	156.960000
435.725616	157.560000
435.819275	157.740000
435.912964	158.340000
436.006622	158.760000
436.100311	158.200000
436.193970	157.480000
436.287628	157.020000
436.381317	156.540000
436.474976	155.960000
436.568665	155.560000
436.662323	155.700000
436.756012	155.760000
436.849670	155.880000
436.943390	155.820000
437.037018	156.060000
437.130737	156.460000
437.224365	156.120000
437.318085	156.300000
437.411713	156.560000
437.505432	156.940000
437.599060	157.220000
437.692780	158.120000
437.786407	158.100000
437.880127	157.980000
437.973755	157.460000
438.067474	156.800000
438.161133	156.520000
438.254822	156.760000
438.348480	156.380000
438.442169	157.100000
438.535828	157.440000
438.629517	156.780000
438.723175	155.940000
438.816864	156.980000
438.910553	156.420000
439.004211	156.020000
439.097900	155.940000
439.191559	156.580000
439.285248	155.380000
439.378906	155.720000
439.472626	155.920000
439.566284	156.040000
439.659973	156.060000
439.753632	156.240000
439.847321	156.540000
439.940979	156.460000
440.034698	156.580000
440.128326	156.100000
440.222046	156.060000
440.315674	155.140000
440.409393	155.320000
440.503082	155.140000
440.596741	155.620000
440.690430	155.740000
440.784088	155.900000
440.877777	155.200000
440.971466	155.600000
441.065125	155.140000
441.158813	155.180000
441.252502	155.240000
441.346161	155.880000
441.439850	155.900000
441.533539	155.780000
441.627197	156.100000
441.720886	155.940000
441.814606	155.980000
441.908234	156.200000
442.001953	156.480000
442.095612	156.200000
442.189301	156.360000
442.282959	156.620000
442.376678	155.760000
442.470306	156.480000
442.564026	156.500000
442.657684	156.380000
442.751404	156.440000
442.845032	157.400000
442.938751	156.300000
443.032440	156.260000
443.126099	156.120000
443.219788	156.380000
443.313477	155.800000
443.407166	156.520000
443.500824	156.420000
443.594513	156.780000
443.688202	156.200000
443.781891	155.760000
443.875549	155.260000
443.969238	155.520000
444.062927	155.720000
444.156647	155.580000
444.250275	156.520000
444.343994	156.900000
444.437653	156.920000
444.531372	156.560000
444.625031	156.240000
444.718719	155.440000
444.812378	155.200000
444.906097	155.080000
444.999756	154.960000
445.093445	155.260000
445.187103	155.600000
445.280823	156.220000
445.374512	155.520000
445.468201	155.540000
445.561859	155.380000
445.655548	155.120000
445.749237	154.240000
445.842926	154.900000
445.936615	155.440000
446.030304	155.060000
446.123962	155.480000
446.217651	155.620000
446.311340	155.820000
446.405029	155.280000
446.498749	155.340000
446.592407	154.960000
446.686096	155.160000
446.779755	155.040000
446.873474	155.320000
446.967133	155.700000
447.060852	155.320000
447.154510	155.300000
447.248230	155.380000
447.341858	155.360000
447.435577	154.880000
447.529236	155.160000
447.622955	154.840000
447.716644	154.620000
447.810333	154.640000
447.904022	155.480000
447.997711	155.440000
448.091400	156.020000
448.185059	156.160000
448.278748	156.120000
448.372437	155.600000
448.466125	155.860000
448.559814	155.880000
448.653503	156.100000
448.747192	156.560000
448.840912	157.160000
448.934570	157.320000
449.028290	157.360000
449.121948	156.980000
449.215637	156.440000
449.309296	155.900000
449.403015	156.120000
449.496674	155.780000
449.590393	155.920000
449.684052	155.940000
449.777771	156.840000
449.871429	155.700000
449.965149	155.740000
450.058838	155.880000
450.152527	156.380000
450.246216	155.580000
450.339905	156.220000
450.433594	156.020000
450.527283	156.660000
450.620972	156.060000
450.714661	156.320000
450.808350	156.080000
450.902039	156.340000
450.995728	155.560000
451.089417	155.140000
451.183105	154.820000
451.276794	155.780000
451.370514	155.260000
451.464172	154.500000
451.557892	154.780000
451.651550	155.260000
451.745270	154.580000
451.838928	154.120000
451.932648	154.920000
452.026306	155.500000
452.120026	155.000000
452.213684	155.240000
452.307404	156.040000
452.401062	156.360000
452.494781	156.580000
452.588470	156.640000
452.682159	156.160000
452.775848	155.960000
452.869537	155.100000
452.963226	154.280000
453.056915	154.160000
453.150604	154.380000
453.244293	154.600000
453.337982	155.600000
453.431671	156.200000
453.525360	156.700000
453.619049	156.940000
453.712769	157.160000
453.806427	156.260000
453.900146	155.600000
453.993805	155.400000
454.087555	155.640000
454.181213	155.520000
454.274933	155.700000
454.368591	155.800000
454.462311	155.560000
454.555969	155.140000
454.649689	155.660000
454.743347	155.480000
454.837067	156.260000
454.930756	156.940000
455.024445	157.180000
455.118134	156.600000
455.211853	156.740000
455.305542	155.980000
455.399231	155.440000
455.492920	155.240000
455.586609	154.840000
455.680298	155.100000
455.773987	154.840000
455.867676	155.000000
455.961365	155.240000
456.055084	155.600000
456.148773	155.460000
456.242493	155.880000
456.336151	156.160000
456.429871	156.440000
456.523529	157.040000
456.617249	156.780000
456.710907	157.240000
456.804626	156.960000
456.898315	156.140000
456.992035	155.780000
457.085693	155.720000
457.179413	154.940000
457.273102	155.740000
457.366791	155.840000
457.460480	156.040000
457.554199	156.980000
457.647888	157.520000
457.741577	156.940000
457.835266	157.260000
457.928955	157.160000
458.022644	156.920000
458.116364	156.980000
458.210052	156.680000
458.303741	156.640000
458.397461	156.060000
458.491119	155.340000
458.584839	155.120000
458.678528	154.940000
458.772247	154.580000
458.865906	155.080000
458.959625	156.380000
459.053284	156.360000
459.147003	156.120000
459.240692	157.000000
459.334412	156.840000
459.428070	155.920000
459.521790	155.860000
459.615479	155.980000
459.709198	156.120000
459.802887	155.540000
459.896576	155.160000
459.990265	155.560000
460.083954	155.920000
460.177673	155.080000
460.271362	155.720000
460.365051	156.120000
460.458740	155.500000
460.552429	155.060000
460.646149	155.160000
460.739838	155.080000
460.833527	155.220000
460.927246	155.040000
461.020905	154.960000
461.114655	155.060000
461.208313	155.000000
461.302032	154.260000
461.395691	154.620000
461.489441	154.700000
461.583099	154.400000
461.676819	154.120000
461.770477	154.940000
461.864197	154.820000
461.957916	154.820000
462.051605	154.380000
462.145294	155.560000
462.238983	155.120000
462.332703	155.600000
462.426392	156.160000
462.520081	156.580000
462.613770	155.680000
462.707489	156.140000
462.801178	155.900000
462.894867	155.380000
462.988556	155.540000
463.082275	155.720000
463.175964	155.380000
463.269684	155.500000
463.363342	155.860000
463.457092	155.280000
463.550751	155.600000
463.644470	155.540000
463.738129	155.480000
463.831879	155.800000
463.925537	156.960000
464.019257	156.880000
464.112946	157.280000
464.206665	157.160000
464.300323	156.520000
464.394043	155.960000
464.487762	155.680000
464.581451	155.600000
464.675140	155.520000
464.768829	156.220000
464.862549	156.260000
464.956238	156.360000
465.049927	156.260000
465.143646	156.340000
465.237335	155.700000
465.331024	156.060000
465.424713	156.000000
465.518433	155.920000
465.612152	155.740000
465.705811	155.660000
465.799561	155.340000
465.893219	155.100000
465.986938	154.900000
466.080597	154.840000
466.174347	155.380000
466.268005	155.480000
466.361725	155.680000
466.455414	155.980000
466.549133	155.920000
466.642792	155.800000
466.736542	155.380000
466.830231	155.260000
466.923920	155.020000
467.017609	155.460000
467.111328	154.940000
467.205017	155.280000
467.298706	155.420000
467.392426	155.900000
467.486115	156.100000
467.579803	155.880000
467.673523	156.140000
467.767212	156.360000
467.860901	156.060000
467.954651	156.120000
468.048309	156.680000
468.142029	156.460000
468.235718	156.260000
468.329437	155.940000
468.423096	155.720000
468.516846	155.660000
468.610504	155.320000
468.704224	154.780000
468.797913	155.040000
468.891632	154.980000
468.985291	155.100000
469.079010	155.440000
469.172729	155.460000
469.266418	155.940000
469.360107	155.900000
469.453827	155.460000
469.547516	155.060000
469.641205	155.720000
469.734924	155.640000
469.828613	155.980000
469.922302	156.620000
470.016022	156.860000
470.109711	156.680000
470.203430	156.320000
470.297150	155.280000
470.390808	155.340000
470.484558	154.960000
470.578217	155.240000
470.671936	155.460000
470.765625	156.820000
470.859344	156.340000
470.953003	157.080000
471.046753	156.740000
471.140411	156.180000
471.234131	156.120000
471.327820	156.540000
471.421539	156.320000
471.515228	155.920000
471.608948	156.080000
471.702637	155.360000
471.796326	154.940000
471.890045	155.200000
471.983734	155.660000
472.077423	155.420000
472.171143	155.260000
472.264832	155.460000
472.358521	155.100000
472.452240	154.680000
472.545929	155.620000
472.639648	155.860000
472.733337	156.240000
472.827057	156.180000
472.920746	156.260000
473.014465	156.140000
473.108124	156.360000
473.201874	155.980000
473.295532	155.900000
473.389252	156.700000
473.482941	156.720000
473.576660	156.240000
473.670319	156.340000
473.764069	156.700000
473.857727	156.580000
473.951477	156.560000
474.045166	157.180000
474.138855	156.860000
474.232574	156.600000
474.326263	156.380000
474.419952	156.340000
474.513672	156.320000
474.607361	156.140000
474.701050	156.400000
474.794769	156.560000
474.888458	156.660000
474.982178	156.440000
475.075867	156.940000
475.169586	156.960000
475.263275	156.540000
475.356995	156.260000
475.450653	155.940000
475.544403	155.460000
475.638062	156.180000
475.731812	155.700000
475.825470	155.700000
475.919189	156.220000
476.012878	156.820000
476.106598	155.880000
476.200256	156.820000
476.294006	156.660000
476.387695	156.680000
476.481384	155.940000
476.575104	156.180000
476.668793	155.560000
476.762512	155.460000
476.856201	155.740000
476.949890	155.720000
477.043610	154.860000
477.137299	154.940000
477.230988	155.300000
477.324707	154.640000
477.418396	155.380000
477.512146	155.780000
477.605804	155.720000
477.699524	155.740000
477.793213	155.580000
477.886932	155.140000
477.980591	155.180000
478.074341	155.080000
478.167999	154.340000
478.261749	154.540000
478.355408	154.740000
478.449127	155.260000
478.542816	156.120000
478.636536	157.340000
478.730225	157.520000
478.823944	157.780000
478.917633	157.500000
479.011322	157.580000
479.105042	157.360000
479.198730	157.480000
479.292450	157.180000
479.386139	157.540000
479.479828	157.420000
479.573547	157.140000
479.667267	157.100000
479.760925	156.940000
479.854675	156.580000
479.948334	156.400000
480.042084	156.100000
480.135742	156.060000
480.229462	155.660000
480.323151	155.540000
480.416870	154.900000
480.510529	155.020000
480.604279	154.420000
480.697937	155.160000
480.791656	154.960000
480.885345	155.020000
480.979065	154.980000
481.072754	155.820000
481.166473	156.060000
481.260132	156.340000
481.353882	156.580000
481.447540	156.440000
481.541260	156.400000
481.635010	155.780000
481.728668	155.340000
481.822388	155.380000
481.916077	155.680000
482.009796	155.200000
482.103485	155.580000
482.197205	156.020000
482.290863	156.080000
482.384613	155.720000
482.478271	155.540000
482.571991	155.460000
482.665680	155.360000
482.759399	156.100000
482.853058	156.840000
482.946808	156.840000
483.040466	156.540000
483.134216	156.360000
483.227875	155.560000
483.321594	155.640000
483.415283	155.900000
483.509003	156.120000
483.602661	156.180000
483.696411	156.380000
483.790070	155.700000
483.883789	155.760000
483.977478	156.120000
484.071198	156.280000
484.164917	155.900000
484.258606	155.840000
484.352325	156.300000
484.445984	156.100000
484.539734	155.820000
484.633392	155.400000
484.727142	155.720000
484.820801	155.080000
484.914520	155.020000
485.008209	155.540000
485.101929	156.540000
485.195587	156.340000
485.289337	156.580000
485.382996	156.520000
485.476715	156.460000
485.570404	156.440000
485.664124	156.500000
485.757782	156.700000
485.851532	156.420000
485.945190	156.200000
486.038910	156.040000
486.132599	156.360000
486.226318	155.780000
486.319977	155.940000
486.413727	156.600000
486.507446	156.000000
486.601105	155.280000
486.694855	155.320000
486.788513	155.280000
486.882233	154.600000
486.975922	155.020000
487.069641	155.220000
487.163300	155.180000
487.257050	156.260000
487.350708	155.960000
487.444427	155.500000
487.538116	155.800000
487.631836	155.700000
487.725494	155.100000
487.819214	155.740000
487.912903	155.800000
488.006622	156.220000
488.100281	156.580000
488.194031	156.360000
488.287689	156.440000
488.381409	157.140000
488.475098	156.520000
488.568817	156.520000
488.662476	156.240000
488.756226	155.520000
488.849945	154.640000
488.943604	154.940000
489.037354	155.140000
489.131012	155.180000
489.224731	155.320000
489.318390	155.500000
489.412140	155.260000
489.505798	155.060000
489.599518	154.760000
489.693207	155.220000
489.786926	155.340000
489.880585	155.220000
489.974335	155.300000
490.067993	156.760000
490.161713	156.800000
490.255371	157.400000
490.349121	157.720000
490.442780	157.440000
490.536499	156.060000
490.630188	155.760000
490.723907	155.180000
490.817566	155.120000
490.911285	155.420000
491.004974	155.440000
491.098694	155.140000
491.192413	155.840000
491.286102	155.680000
491.379822	155.520000
491.473480	155.940000
491.567200	155.900000
491.660889	155.080000
491.754608	155.380000
491.848267	155.460000
491.941986	155.280000
492.035675	155.420000
492.129395	156.220000
492.223053	155.760000
492.316772	155.880000
492.410461	155.820000
492.504181	156.000000
492.597839	155.380000
492.691559	155.620000
492.785248	155.960000
492.878967	156.100000
492.972626	155.900000
493.066345	155.820000
493.160034	155.360000
493.253754	155.060000
493.347412	154.540000
493.441132	154.800000
493.534882	155.600000
493.628540	156.200000
493.722260	156.320000
493.815918	157.240000
493.909668	157.720000
494.003326	157.680000
494.097046	157.400000
494.190704	157.240000
494.284454	156.920000
494.378113	156.460000
494.471832	156.320000
494.565491	156.240000
494.659210	156.200000
494.752899	156.080000
494.846619	156.120000
494.940277	155.980000
495.033997	155.940000
495.127686	155.480000
495.221405	155.260000
495.315063	155.500000
495.408783	155.580000
495.502441	155.540000
495.596191	155.740000
495.689850	155.680000
495.783569	155.720000
495.877228	155.780000
495.970947	155.760000
496.064697	156.020000
496.158356	157.100000
496.252075	156.840000
496.345734	156.320000
496.439453	157.560000
496.533142	157.600000
496.626862	157.420000
496.720520	157.460000
496.814240	157.760000
496.907898	156.980000
497.001617	157.280000
497.095306	156.440000
497.189026	156.500000
497.282684	156.660000
497.376404	156.800000
497.470062	156.200000
497.563782	156.680000
497.657471	156.560000
497.751190	156.100000
497.844849	156.000000
497.938568	156.460000
498.032227	156.300000
498.125946	156.420000
498.219635	156.560000
498.313354	156.420000
498.407074	156.100000
498.500732	156.280000
498.594452	156.280000
498.688110	155.780000
498.781830	155.400000
498.875519	155.420000
498.969238	155.260000
499.062897	155.160000
499.156616	155.940000
499.250275	156.080000
499.343994	155.560000
499.437653	155.400000
499.531372	155.700000
499.625061	156.260000
499.718781	156.600000
499.812439	157.100000
499.906158	156.840000
499.999817	156.300000
500.093536	155.660000
500.187195	155.540000
500.280914	155.800000
500.374573	156.400000
500.468323	156.200000
500.561981	156.360000
500.655701	156.040000
500.749420	155.760000
500.843079	155.520000
500.936798	156.020000
501.030457	156.120000
501.124176	156.540000
501.217834	156.460000
501.311554	156.520000
501.405212	156.140000
501.498962	155.380000
501.592621	155.220000
501.686340	155.760000
501.779999	155.940000
501.873718	156.380000
501.967377	156.820000
502.061096	157.140000
502.154755	156.240000
502.248474	156.300000
502.342133	156.340000
502.435852	156.240000
502.529510	156.960000
502.623230	158.000000
502.716888	157.120000
502.810608	156.960000
502.904266	157.600000
502.997986	156.380000
503.091705	155.540000
503.185364	155.880000
503.279083	155.760000
503.372772	155.100000
503.466492	154.960000
503.560150	155.000000
503.653870	155.440000
503.747528	155.600000
503.841248	155.940000
503.934906	156.480000
504.028625	156.320000
504.122284	156.080000
504.216003	156.600000
504.309662	156.080000
504.403381	156.120000
504.497040	156.540000
504.590759	156.720000
504.684418	156.500000
504.778137	157.160000
504.871796	157.220000
504.965515	157.060000
505.059174	156.760000
505.152893	155.840000
505.246521	155.240000
505.340240	154.880000
505.433899	155.040000
505.527618	155.460000
505.621338	156.200000
505.714996	156.140000
505.808716	155.980000
505.902374	156.320000
505.996094	156.400000
506.089752	156.240000
506.183472	156.440000
506.277130	157.020000
506.370850	156.960000
506.464508	156.540000
506.558228	156.620000
506.651886	156.500000
506.745605	156.380000
506.839264	156.440000
506.932983	156.400000
507.026611	156.140000
507.120331	156.620000
507.213989	155.860000
507.307709	155.520000
507.401367	155.880000
507.495087	156.920000
507.588745	156.340000
507.682465	157.460000
507.776123	157.360000
507.869843	157.180000
507.963531	156.700000
508.057190	157.500000
508.150909	156.520000
508.244568	156.860000
508.338287	156.640000
508.431946	156.120000
508.525665	155.380000
508.619324	155.720000
508.713013	156.220000
508.806671	156.720000
508.900391	157.740000
508.994049	158.100000
509.087769	157.700000
509.181427	157.220000
509.275146	156.780000
509.368774	155.760000
509.462494	155.880000
509.556152	155.780000
509.649872	156.060000
509.743530	156.360000
509.837250	156.660000
509.930878	156.500000
510.024597	156.800000
510.118256	156.520000
510.211975	156.240000
510.305695	156.060000
510.399353	156.440000
510.493042	156.960000
510.586700	157.000000
510.680420	157.760000
510.774078	157.700000
510.867798	157.420000
510.961426	156.880000
511.055145	156.500000
511.148804	155.800000
511.242523	156.440000
511.336151	156.380000
511.429871	156.960000
511.523529	157.040000
511.617249	156.660000
511.710876	156.220000
511.804596	155.720000
511.898254	155.120000
511.991974	155.500000
512.085632	155.640000
512.179321	155.620000
512.272949	156.200000
512.366699	156.880000
512.460327	156.680000
512.554077	157.640000
512.647766	157.620000
512.741394	157.280000
512.835144	157.500000
512.928772	156.920000
513.022461	156.480000
513.116150	156.040000
513.209839	156.520000
513.303467	156.040000
513.397217	156.160000
513.490845	155.880000
513.584595	156.160000
513.678223	155.800000
513.771912	155.020000
513.865601	155.280000
513.959290	155.240000
514.052917	155.240000
514.146667	155.820000
514.240295	156.480000
514.333984	157.040000
514.427673	156.880000
514.521362	157.200000
514.614990	156.300000
514.708740	156.440000
514.802368	156.260000
514.896057	156.520000
514.989746	157.100000
515.083435	157.420000
515.177124	157.340000
515.270752	156.920000
515.364502	156.820000
515.458130	156.600000
515.551819	156.340000
515.645508	156.180000
515.739197	156.260000
515.832825	156.640000
515.926575	156.080000
516.020203	156.220000
516.113892	156.720000
516.207520	156.780000
516.301270	156.640000
516.394897	156.720000
516.488586	157.480000
516.582275	157.800000
516.675964	157.280000
516.769592	157.220000
516.863281	157.640000
516.956970	157.540000
517.050659	156.860000
517.144287	157.060000
517.238037	156.860000
517.331665	156.180000
517.425354	155.300000
517.519043	154.940000
517.612732	155.360000
517.706421	155.300000
517.800049	155.420000
517.893738	155.620000
517.987427	156.020000
518.081116	155.680000
518.174744	155.460000
518.268433	155.600000
518.362122	156.220000
518.455811	155.820000
518.549438	156.500000
518.643127	157.560000
518.736816	157.600000
518.830505	157.020000
518.924133	157.200000
519.017822	157.160000
519.111511	156.980000
519.205200	157.340000
519.298828	157.420000
519.392517	157.120000
519.486206	157.080000
519.579895	156.820000
519.673523	156.280000
519.767212	156.420000
519.860901	157.020000
519.954590	156.640000
520.048279	156.180000
520.141907	156.080000
520.235596	156.960000
520.329224	157.200000
520.422974	157.300000
520.516602	157.320000
520.610291	156.920000
520.703918	156.340000
520.797607	155.900000
520.891296	155.660000
520.984985	155.800000
521.078613	156.660000
521.172302	156.020000
521.265930	156.760000
521.359680	157.460000
521.453308	157.540000
521.546997	157.380000
521.640625	157.600000
521.734314	157.020000
521.827942	156.460000
521.921692	156.480000
522.015320	156.380000
522.109009	156.200000
522.202698	156.160000
522.296326	156.260000
522.390015	156.240000
522.483704	156.460000
522.577393	156.360000
522.671021	156.000000
522.764709	155.680000
522.858337	156.340000
522.952026	156.120000
523.045654	157.100000
523.139404	157.820000
523.233032	158.040000
523.326721	157.580000
523.420349	157.640000
523.514038	156.820000
523.607666	156.880000
523.701355	156.460000
523.795044	156.520000
523.888733	156.520000
523.982361	156.980000
524.076050	156.180000
524.169678	157.080000
524.263367	156.380000
524.356995	156.140000
524.450684	155.820000
524.544373	156.060000
524.638062	155.840000
524.731750	156.360000
524.825378	156.580000
524.919067	156.140000
525.012695	156.220000
525.106384	155.680000
525.200012	155.740000
525.293701	155.620000
525.387329	156.440000
525.481018	156.580000
525.574646	157.080000
525.668396	156.880000
525.762024	157.160000
525.855713	157.020000
525.949341	156.460000
526.043030	156.440000
526.136658	156.360000
526.230347	156.000000
526.323975	155.460000
526.417664	155.540000
526.511292	155.600000
526.604980	155.940000
526.698608	156.100000
526.792297	156.500000
526.885925	156.720000
526.979614	156.760000
527.073303	156.480000
527.166931	156.420000
527.260620	156.500000
527.354309	157.000000
527.447998	156.860000
527.541626	156.840000
527.635315	157.040000
527.728943	157.320000
527.822632	157.240000
527.916260	157.140000
528.009949	157.440000
528.103577	156.880000
528.197266	156.040000
528.290894	156.040000
528.384583	156.200000
528.478210	155.980000
528.571899	156.280000
528.665527	156.800000
528.759216	156.820000
528.852844	156.880000
528.946533	156.720000
529.040161	156.800000
529.133850	156.560000
529.227478	156.540000
529.321167	156.700000
529.414856	157.260000
529.508484	157.600000
529.602173	157.300000
529.695801	157.140000
529.789490	156.700000
529.883057	155.960000
529.976746	156.020000
530.070374	156.920000
530.164062	156.840000
530.257690	157.500000
530.351379	158.120000
530.445007	157.820000
530.538696	157.000000
530.632324	157.460000
530.726013	156.860000
530.819641	156.780000
530.913330	156.640000
531.006958	156.720000
531.100647	156.520000
531.194275	156.420000
531.287964	156.160000
531.381592	156.220000
531.475220	156.380000
531.568848	156.140000
531.662537	156.040000
531.756226	156.500000
531.849854	156.560000
531.943542	156.400000
532.037170	155.840000
532.130859	156.640000
532.224487	156.040000
532.318176	155.420000
532.411804	156.320000
532.505432	156.840000
532.599060	156.080000
532.692749	156.160000
532.786377	156.920000
532.880066	155.860000
532.973694	155.500000
533.067383	155.840000
533.161011	155.920000
533.254639	155.900000
533.348267	156.100000
533.441956	156.660000
533.535583	156.600000
533.629272	156.960000
533.722900	156.260000
533.816589	156.320000
533.910156	156.300000
534.003845	155.780000
534.097534	156.120000
534.191162	157.180000
534.284851	157.080000
534.378479	156.900000
534.472107	157.140000
534.565735	156.320000
534.659424	155.960000
534.753052	156.540000
534.846741	156.360000
534.940369	157.040000
535.033997	156.900000
535.127625	156.980000
535.221313	157.400000
535.314941	157.260000
535.408630	156.400000
535.502197	157.060000
535.595886	156.720000
535.689514	156.160000
535.783203	156.720000
535.876831	157.660000
535.970459	157.240000
536.064087	157.020000
536.157776	156.620000
536.251404	156.640000
536.345093	156.060000
536.438721	156.180000
536.532349	156.500000
536.626038	156.520000
536.719666	156.720000
536.813293	156.500000
536.906921	156.180000
537.000610	156.400000
537.094238	156.700000
537.187866	156.420000
537.281494	156.540000
537.375183	157.260000
537.468811	156.880000
537.562439	157.060000
537.656067	156.900000
537.749756	156.720000
537.843384	157.220000
537.937012	157.620000
538.030640	157.040000
538.124329	156.820000
538.217896	157.620000
538.311584	157.200000
538.405212	157.200000
538.498901	157.520000
538.592468	158.620000
538.686157	157.780000
538.779785	156.720000
538.873413	156.620000
538.967102	156.240000
539.060730	155.060000
539.154358	155.300000
539.247986	155.760000
539.341675	155.660000
539.435242	155.780000
539.528931	156.360000
539.622559	156.200000
539.716187	156.920000
539.809814	156.840000
539.903503	157.040000
539.997070	156.760000
540.090759	157.000000
540.184387	156.220000
540.278015	156.820000
540.371643	157.000000
540.465332	157.100000
540.558899	156.800000
540.652588	157.260000
540.746216	156.840000
540.839844	157.160000
540.933472	157.040000
541.027100	157.000000
541.120728	156.860000
541.214417	156.880000
541.308044	156.840000
541.401672	156.780000
541.495300	156.940000
541.588928	156.940000
541.682617	156.840000
541.776184	156.460000
541.869873	156.760000
541.963440	156.700000
542.057129	156.620000
542.150757	156.640000
542.244385	156.220000
542.338013	155.680000
542.431641	155.500000
542.525269	155.440000
542.618958	155.900000
542.712524	156.240000
542.806213	156.320000
542.899780	156.740000
542.993469	156.460000
543.087036	155.680000
543.180725	155.220000
543.274292	155.540000
543.367981	155.420000
543.461548	156.100000
543.555237	156.240000
543.648926	157.000000
543.742493	157.720000
543.836182	157.520000
543.929749	156.780000
544.023437	156.940000
544.117004	156.680000
544.210693	156.140000
544.304260	156.320000
544.397949	156.540000
544.491516	156.900000
544.585205	156.800000
544.678772	156.140000
544.772461	156.540000
544.866028	156.440000
544.959717	156.480000
545.053284	156.180000
545.146973	156.480000
545.240540	156.400000
545.334229	157.120000
545.427795	156.800000
545.521423	157.180000
545.615051	157.380000
545.708679	157.760000
545.802307	157.400000
545.895935	157.860000
545.989624	158.680000
546.083191	158.860000
546.176880	158.520000
546.270447	158.060000
546.364136	158.360000
546.457703	157.680000
546.551331	157.560000
546.644958	157.640000
546.738586	158.200000
546.832214	157.400000
546.925842	156.860000
547.019409	157.060000
547.113098	156.380000
547.206665	155.920000
547.300354	156.120000
547.393921	156.800000
547.487549	157.220000
547.581177	157.060000
547.674805	157.360000
547.768433	156.600000
547.862061	156.320000
547.955627	155.520000
548.049316	156.720000
548.142883	156.940000
548.236572	157.780000
548.330139	158.260000
548.423767	158.200000
548.517456	157.500000
548.611023	157.620000
548.704651	156.920000
548.798279	156.360000
548.891907	156.680000
548.985474	156.980000
549.079163	156.960000
549.172729	156.780000
549.266357	156.520000
549.359985	156.420000
549.453613	155.740000
549.547180	155.180000
549.640869	155.880000
549.734436	156.000000
549.828064	156.440000
549.921631	156.640000
550.015320	156.660000
550.108887	157.020000
550.202515	157.040000
550.296143	156.520000
550.389771	156.740000
550.483337	156.800000
550.576965	156.260000
550.670593	157.040000
550.764221	156.940000
550.857849	156.720000
550.951477	156.360000
551.045105	156.200000
551.138672	155.840000
551.232300	155.820000
551.325928	156.260000
551.419556	156.840000
551.513123	157.160000
551.606750	156.560000
551.700378	156.740000
551.794006	156.700000
551.887573	156.400000
551.981201	156.700000
552.074768	157.100000
552.168457	157.040000
552.262024	157.580000
552.355652	157.800000
552.449219	157.920000
552.542847	157.920000
552.636475	157.540000
552.730103	156.460000
552.823669	156.360000
552.917297	155.820000
553.010864	155.820000
553.104553	156.160000
553.198181	156.040000
553.291748	156.580000
553.385376	156.780000
553.478943	156.500000
553.572571	156.440000
553.666199	157.080000
553.759827	156.340000
553.853394	155.900000
553.947021	156.340000
554.040588	156.540000
554.134216	156.500000
554.227783	157.480000
554.321411	158.400000
554.415039	157.560000
554.508667	157.420000
554.602234	157.280000
554.695862	156.280000
554.789429	155.780000
554.883057	156.420000
554.976624	156.360000
555.070251	156.500000
555.163818	156.560000
555.257507	156.480000
555.351074	156.340000
555.444702	157.600000
555.538330	157.000000
555.631897	157.280000
555.725525	157.140000
555.819092	156.880000
555.912720	155.320000
556.006287	156.000000
556.099915	155.940000
556.193481	155.980000
556.287109	156.280000
556.380676	156.360000
556.474304	156.480000
556.567871	156.760000
556.661499	156.280000
556.755066	156.380000
556.848694	156.560000
556.942261	156.140000
557.035889	156.100000
557.129517	156.640000
557.223145	157.080000
557.316711	157.060000
557.410339	157.280000
557.503906	157.060000
557.597473	157.240000
557.691040	156.700000
557.784668	156.820000
557.878296	156.820000
557.971863	156.820000
558.065491	156.700000
558.159058	156.380000
558.252686	157.140000
558.346252	157.720000
558.439880	157.320000
558.533447	157.060000
558.627075	156.980000
558.720642	156.080000
558.814270	155.640000
558.907837	155.660000
559.001465	155.700000
559.095032	156.560000
559.188660	156.860000
559.282227	156.260000
559.375854	157.040000
559.469360	157.020000
559.562988	157.080000
559.656555	157.000000
559.750183	157.020000
559.843750	156.740000
559.937378	156.920000
560.030945	156.280000
560.124573	0.000000
560.218140	0.000000
560.311707	0.000000
560.405334	0.000000
560.498901	0.000000
560.592529	0.000000
560.686096	0.000000
560.779724	0.000000
560.873291	0.000000
560.966858	0.000000
561.060425	0.000000
561.154053	0.000000
561.247620	0.000000
561.341248	0.000000
561.434814	0.000000
561.528381	0.000000
561.621948	0.000000
561.715576	0.000000
561.809143	0.000000
561.902771	0.000000
561.996277	0.000000
562.089905	0.000000
562.183472	0.000000
562.277100	0.000000
