Model Number: SPM-002-B   
Serial Number: 70087108
Firmware Version: 004.15.4
Exposure Time: 100000.000000us
Data Taken on: 15-01-2021 17:39:36.110
Wavelength	Amplitude
221.570786	0.000000
221.663406	0.000000
221.756027	0.000000
221.848648	0.000000
221.941269	0.000000
222.033905	0.000000
222.126526	0.000000
222.219162	0.000000
222.311798	0.000000
222.404419	0.000000
222.497055	0.000000
222.589676	0.000000
222.682312	0.000000
222.774933	0.000000
222.867569	0.000000
222.960205	0.000000
223.052841	0.000000
223.145462	0.000000
223.238098	0.000000
223.330734	0.000000
223.423386	0.000000
223.516022	0.000000
223.608658	0.000000
223.701309	0.000000
223.793945	0.000000
223.886581	0.000000
223.979218	0.000000
224.071869	0.000000
224.164505	0.000000
224.257156	0.000000
224.349792	0.000000
224.442444	0.000000
224.535095	0.000000
224.627747	0.000000
224.720398	0.000000
224.813034	0.000000
224.905685	0.000000
224.998337	155.880000
225.090988	155.780000
225.183640	156.040000
225.276291	156.100000
225.368942	156.260000
225.461594	156.640000
225.554245	156.800000
225.646912	156.700000
225.739578	156.840000
225.832230	157.520000
225.924896	156.560000
226.017548	156.840000
226.110199	157.300000
226.202866	156.860000
226.295532	156.440000
226.388184	156.380000
226.480850	155.880000
226.573517	155.260000
226.666168	155.420000
226.758835	155.820000
226.851501	156.500000
226.944183	156.560000
227.036850	156.480000
227.129517	156.480000
227.222183	156.360000
227.314850	155.900000
227.407516	156.460000
227.500198	157.320000
227.592865	157.140000
227.685532	156.640000
227.778214	156.480000
227.870880	156.360000
227.963562	156.700000
228.056229	157.260000
228.148926	157.380000
228.241592	158.360000
228.334274	157.900000
228.426956	157.140000
228.519638	156.880000
228.612305	156.360000
228.704987	156.060000
228.797668	156.100000
228.890350	156.020000
228.983032	155.360000
229.075714	156.340000
229.168396	155.940000
229.261108	155.900000
229.353790	156.080000
229.446472	156.780000
229.539169	156.200000
229.631851	155.940000
229.724533	156.300000
229.817230	156.480000
229.909912	157.360000
230.002609	157.540000
230.095306	157.600000
230.187988	157.560000
230.280685	157.200000
230.373383	156.020000
230.466095	155.980000
230.558792	156.460000
230.651474	156.200000
230.744171	156.020000
230.836868	155.740000
230.929581	156.060000
231.022278	155.980000
231.114975	156.080000
231.207672	156.040000
231.300369	156.640000
231.393082	156.640000
231.485779	156.540000
231.578506	156.420000
231.671204	156.440000
231.763916	156.280000
231.856613	155.960000
231.949326	156.020000
232.042023	156.000000
232.134735	156.080000
232.227448	155.720000
232.320160	156.320000
232.412872	156.240000
232.505585	157.240000
232.598297	157.620000
232.691010	157.780000
232.783722	157.180000
232.876450	157.700000
232.969162	156.680000
233.061874	156.280000
233.154587	156.100000
233.247314	156.260000
233.340027	155.840000
233.432739	156.400000
233.525467	156.120000
233.618179	156.540000
233.710907	156.480000
233.803635	156.640000
233.896347	156.160000
233.989090	156.980000
234.081818	156.820000
234.174545	157.000000
234.267258	156.760000
234.359985	156.960000
234.452713	156.560000
234.545441	156.440000
234.638168	156.140000
234.730896	156.540000
234.823639	156.620000
234.916367	157.260000
235.009094	157.480000
235.101822	157.660000
235.194580	157.440000
235.287308	157.480000
235.380051	156.880000
235.472778	157.160000
235.565521	157.380000
235.658249	157.060000
235.750992	156.860000
235.843719	156.840000
235.936462	156.840000
236.029205	156.340000
236.121948	156.080000
236.214691	156.500000
236.307449	157.020000
236.400192	156.600000
236.492935	156.660000
236.585678	156.880000
236.678421	156.740000
236.771164	156.560000
236.863907	156.980000
236.956665	157.000000
237.049408	158.860000
237.142151	158.200000
237.234909	158.600000
237.327652	158.440000
237.420410	158.320000
237.513153	156.780000
237.605927	156.940000
237.698669	156.280000
237.791428	155.740000
237.884186	156.320000
237.976944	155.820000
238.069702	156.220000
238.162445	155.760000
238.255203	155.900000
238.347961	155.740000
238.440720	156.040000
238.533478	155.840000
238.626266	155.980000
238.719025	156.580000
238.811783	156.620000
238.904541	156.600000
238.997314	156.440000
239.090073	155.960000
239.182831	155.980000
239.275604	156.860000
239.368362	156.600000
239.461136	156.760000
239.553909	157.580000
239.646667	157.340000
239.739441	156.320000
239.832214	156.960000
239.925003	157.180000
240.017761	157.540000
240.110535	158.060000
240.203308	157.640000
240.296082	157.420000
240.388855	157.380000
240.481628	157.220000
240.574417	157.180000
240.667191	157.440000
240.759964	157.040000
240.852737	156.880000
240.945526	156.500000
241.038315	155.780000
241.131088	156.100000
241.223877	156.560000
241.316650	156.180000
241.409439	156.720000
241.502228	156.720000
241.595001	157.100000
241.687790	156.600000
241.780579	156.820000
241.873367	156.620000
241.966141	156.880000
242.058929	156.140000
242.151718	156.600000
242.244507	156.700000
242.337311	155.920000
242.430099	156.440000
242.522903	156.740000
242.615692	156.260000
242.708481	156.420000
242.801270	157.460000
242.894073	157.040000
242.986862	156.940000
243.079651	157.660000
243.172455	157.560000
243.265244	157.420000
243.358063	156.800000
243.450867	157.200000
243.543655	157.200000
243.636459	156.940000
243.729263	156.660000
243.822067	157.360000
243.914856	157.400000
244.007660	157.340000
244.100464	157.620000
244.193268	157.560000
244.286072	157.260000
244.378876	156.800000
244.471680	156.440000
244.564499	156.520000
244.657318	156.980000
244.750122	157.140000
244.842926	156.580000
244.935745	156.840000
245.028549	156.260000
245.121368	155.860000
245.214172	155.820000
245.306992	156.620000
245.399796	156.260000
245.492615	157.000000
245.585434	156.920000
245.678253	156.980000
245.771072	156.580000
245.863892	157.060000
245.956711	156.880000
246.049530	156.620000
246.142349	156.180000
246.235168	156.300000
246.327988	156.560000
246.420807	156.500000
246.513626	156.400000
246.606445	156.340000
246.699280	156.360000
246.792099	156.220000
246.884918	155.720000
246.977753	156.040000
247.070587	156.320000
247.163422	156.280000
247.256241	155.820000
247.349075	156.300000
247.441895	156.340000
247.534729	156.120000
247.627563	155.880000
247.720383	156.660000
247.813217	156.440000
247.906052	156.180000
247.998886	156.400000
248.091736	156.400000
248.184570	155.780000
248.277405	156.020000
248.370239	157.040000
248.463074	158.080000
248.555908	158.500000
248.648743	158.440000
248.741592	158.360000
248.834427	157.700000
248.927261	156.480000
249.020111	156.660000
249.112946	157.360000
249.205795	156.940000
249.298630	156.900000
249.391495	157.120000
249.484344	156.820000
249.577179	156.560000
249.670029	156.980000
249.762878	157.480000
249.855728	157.260000
249.948563	157.460000
250.041412	156.840000
250.134262	157.120000
250.227112	156.980000
250.319962	157.320000
250.412827	157.040000
250.505692	156.780000
250.598541	156.940000
250.691391	156.500000
250.784241	156.440000
250.877106	156.700000
250.969955	156.720000
251.062805	156.900000
251.155670	157.520000
251.248520	157.420000
251.341385	157.600000
251.434235	157.680000
251.527100	157.100000
251.619965	156.540000
251.712814	157.440000
251.805695	157.180000
251.898560	157.740000
251.991425	158.020000
252.084290	158.380000
252.177155	157.480000
252.270020	157.300000
252.362885	156.780000
252.455750	156.880000
252.548615	156.560000
252.641479	156.400000
252.734360	156.280000
252.827240	156.300000
252.920105	156.380000
253.012970	156.140000
253.105850	156.160000
253.198715	156.340000
253.291595	156.560000
253.384460	155.840000
253.477341	155.780000
253.570221	156.040000
253.663086	155.720000
253.755966	156.400000
253.848846	156.580000
253.941727	156.980000
254.034592	156.700000
254.127472	156.280000
254.220367	155.900000
254.313248	156.120000
254.406128	155.720000
254.499008	156.140000
254.591904	157.240000
254.684784	157.740000
254.777664	157.760000
254.870544	157.620000
254.963440	157.500000
255.056335	157.240000
255.149216	156.640000
255.242111	157.260000
255.334991	157.640000
255.427887	157.840000
255.520767	157.800000
255.613663	157.840000
255.706558	156.940000
255.799438	156.920000
255.892334	156.460000
255.985229	156.300000
256.078125	156.320000
256.171021	156.440000
256.263916	157.140000
256.356812	157.480000
256.449707	157.760000
256.542603	157.320000
256.635498	158.040000
256.728394	157.420000
256.821289	157.020000
256.914215	157.320000
257.007080	157.780000
257.100006	157.740000
257.192932	158.240000
257.285828	158.400000
257.378723	158.200000
257.471619	157.820000
257.564545	156.780000
257.657440	156.620000
257.750336	157.340000
257.843262	156.920000
257.936157	158.200000
258.029053	158.840000
258.121979	158.680000
258.214874	158.000000
258.307800	158.020000
258.400696	156.940000
258.493622	156.880000
258.586517	155.880000
258.679443	156.300000
258.772339	155.760000
258.865265	155.880000
258.958160	155.340000
259.051086	156.860000
259.144012	156.500000
259.236938	157.840000
259.329834	157.680000
259.422791	157.580000
259.515717	156.420000
259.608612	156.540000
259.701538	156.140000
259.794464	155.960000
259.887390	156.320000
259.980316	156.460000
260.073212	156.120000
260.166138	155.000000
260.259064	155.460000
260.351990	156.060000
260.444916	156.460000
260.537842	156.820000
260.630768	157.940000
260.723694	157.820000
260.816620	157.440000
260.909546	157.120000
261.002472	156.720000
261.095398	156.180000
261.188354	156.220000
261.281281	155.780000
261.374207	155.920000
261.467133	156.820000
261.560089	157.060000
261.653015	156.580000
261.745972	157.500000
261.838867	157.980000
261.931824	157.620000
262.024780	157.380000
262.117706	157.900000
262.210663	157.520000
262.303589	157.260000
262.396515	157.160000
262.489471	158.180000
262.582397	158.040000
262.675354	157.520000
262.768280	157.520000
262.861237	157.640000
262.954163	157.400000
263.047119	157.180000
263.140045	156.880000
263.233002	156.760000
263.325958	156.740000
263.418884	155.960000
263.511841	156.240000
263.604797	156.680000
263.697723	156.420000
263.790680	155.940000
263.883636	156.500000
263.976593	156.500000
264.069550	156.700000
264.162476	156.620000
264.255463	157.020000
264.348419	156.680000
264.441376	156.820000
264.534332	156.140000
264.627289	156.260000
264.720245	156.740000
264.813202	156.400000
264.906158	156.340000
264.999115	157.500000
265.092072	157.620000
265.185028	157.860000
265.277985	158.460000
265.370941	158.420000
265.463898	157.400000
265.556854	157.400000
265.649811	156.300000
265.742798	156.160000
265.835754	156.160000
265.928711	157.040000
266.021667	157.260000
266.114655	157.740000
266.207611	157.700000
266.300568	157.220000
266.393585	156.520000
266.486511	156.620000
266.579498	155.820000
266.672485	155.720000
266.765442	155.560000
266.858429	156.260000
266.951385	155.820000
267.044342	156.100000
267.137329	156.000000
267.230316	156.540000
267.323273	156.020000
267.416260	156.740000
267.509216	156.560000
267.602203	156.580000
267.695160	157.060000
267.788147	157.160000
267.881134	156.300000
267.974091	156.640000
268.067078	156.640000
268.160065	156.000000
268.253052	156.300000
268.346008	156.680000
268.438995	156.640000
268.531982	156.820000
268.624969	156.600000
268.717987	156.760000
268.810944	156.440000
268.903961	156.700000
268.996948	156.020000
269.089905	156.580000
269.182892	156.080000
269.275879	156.660000
269.368866	155.920000
269.461853	156.640000
269.554871	156.560000
269.647858	156.680000
269.740845	156.940000
269.833832	157.720000
269.926819	157.180000
270.019806	156.900000
270.112793	156.460000
270.205811	156.320000
270.298798	156.020000
270.391785	156.680000
270.484772	156.560000
270.577789	157.120000
270.670776	156.360000
270.763763	156.280000
270.856750	156.320000
270.949768	156.200000
271.042786	155.920000
271.135773	156.320000
271.228790	156.440000
271.321808	155.760000
271.414795	155.400000
271.507782	155.120000
271.600800	154.860000
271.693817	155.260000
271.786804	155.920000
271.879822	156.620000
271.972809	156.860000
272.065826	157.280000
272.158844	156.620000
272.251831	156.980000
272.344849	156.900000
272.437866	156.640000
272.530853	156.580000
272.623871	157.060000
272.716888	155.800000
272.809906	155.960000
272.902893	156.040000
272.995911	155.340000
273.088928	155.200000
273.181946	155.820000
273.274963	155.580000
273.367981	155.600000
273.460999	155.960000
273.554047	156.480000
273.647003	157.120000
273.740051	157.240000
273.833069	157.840000
273.926086	158.060000
274.019135	157.600000
274.112152	157.100000
274.205170	157.400000
274.298187	157.500000
274.391205	157.180000
274.484222	157.160000
274.577240	156.960000
274.670258	156.400000
274.763306	156.180000
274.856323	156.260000
274.949341	156.240000
275.042358	156.780000
275.135406	156.800000
275.228424	156.800000
275.321442	157.140000
275.414490	156.800000
275.507507	157.180000
275.600525	157.620000
275.693573	157.340000
275.786591	156.960000
275.879669	157.340000
275.972656	156.640000
276.065735	156.480000
276.158752	157.080000
276.251801	157.820000
276.344818	157.980000
276.437866	158.060000
276.530884	157.560000
276.623932	156.500000
276.716980	156.080000
276.809998	155.820000
276.903046	155.820000
276.996094	156.960000
277.089111	157.480000
277.182159	157.980000
277.275208	157.760000
277.368256	157.680000
277.461304	157.120000
277.554321	156.480000
277.647369	156.040000
277.740417	156.200000
277.833466	155.720000
277.926514	155.600000
278.019562	156.580000
278.112610	156.040000
278.205688	156.080000
278.298706	156.440000
278.391785	156.060000
278.484833	155.340000
278.577881	155.620000
278.670929	155.900000
278.763977	156.080000
278.857025	156.840000
278.950073	156.940000
279.043121	156.700000
279.136169	156.560000
279.229248	156.080000
279.322296	155.980000
279.415344	156.100000
279.508392	156.240000
279.601440	155.980000
279.694519	156.280000
279.787567	156.220000
279.880615	156.080000
279.973694	155.920000
280.066742	156.180000
280.159790	156.280000
280.252869	155.680000
280.345917	155.840000
280.438995	155.920000
280.532074	155.820000
280.625122	155.980000
280.718201	157.420000
280.811279	157.740000
280.904327	157.940000
280.997406	158.020000
281.090454	157.680000
281.183533	156.560000
281.276581	156.140000
281.369659	155.740000
281.462738	155.660000
281.555786	156.120000
281.648865	156.220000
281.741943	156.300000
281.835022	157.120000
281.928070	157.160000
282.021149	156.760000
282.114227	156.640000
282.207306	156.420000
282.300385	156.320000
282.393433	156.480000
282.486511	156.480000
282.579590	156.900000
282.672668	157.440000
282.765747	156.740000
282.858856	156.280000
282.951904	156.680000
283.045013	156.700000
283.138062	156.760000
283.231171	157.320000
283.324249	158.180000
283.417328	158.200000
283.510406	157.620000
283.603485	157.380000
283.696564	157.060000
283.789642	156.500000
283.882751	156.300000
283.975830	157.300000
284.068909	157.080000
284.161987	157.820000
284.255066	157.400000
284.348175	157.220000
284.441254	156.880000
284.534332	157.220000
284.627441	156.560000
284.720520	156.420000
284.813599	156.640000
284.906708	156.580000
284.999786	155.940000
285.092896	155.880000
285.185974	157.380000
285.279053	156.680000
285.372192	156.340000
285.465240	157.180000
285.558380	156.860000
285.651459	155.840000
285.744568	156.940000
285.837677	156.900000
285.930756	156.820000
286.023865	157.280000
286.116943	156.700000
286.210052	156.680000
286.303162	156.680000
286.396240	156.740000
286.489349	156.280000
286.582458	157.020000
286.675568	156.240000
286.768646	156.300000
286.861755	156.320000
286.954865	157.120000
287.047974	156.660000
287.141083	156.680000
287.234161	156.520000
287.327271	155.960000
287.420380	156.380000
287.513519	156.420000
287.606598	156.700000
287.699738	157.020000
287.792816	156.980000
287.885956	156.360000
287.979034	156.120000
288.072174	156.000000
288.165283	155.520000
288.258392	155.820000
288.351501	155.400000
288.444611	155.920000
288.537720	156.400000
288.630859	156.400000
288.723969	156.760000
288.817078	157.160000
288.910187	157.060000
289.003296	156.200000
289.096436	156.120000
289.189545	155.740000
289.282654	155.340000
289.375763	155.920000
289.468903	156.860000
289.562012	157.200000
289.655121	156.780000
289.748260	157.180000
289.841400	157.220000
289.934509	156.720000
290.027649	157.040000
290.120728	156.920000
290.213898	156.660000
290.306976	156.140000
290.400146	156.220000
290.493256	155.360000
290.586395	155.860000
290.679535	155.980000
290.772644	155.900000
290.865784	155.460000
290.958893	155.840000
291.052032	155.660000
291.145172	155.800000
291.238281	155.560000
291.331421	155.900000
291.424561	156.500000
291.517670	156.400000
291.610809	156.280000
291.703949	156.120000
291.797089	156.220000
291.890228	155.640000
291.983337	155.600000
292.076477	155.840000
292.169617	156.420000
292.262756	156.380000
292.355927	156.300000
292.449036	156.140000
292.542206	155.940000
292.635315	156.060000
292.728485	156.520000
292.821625	156.220000
292.914764	157.520000
293.007904	157.620000
293.101044	157.660000
293.194183	156.940000
293.287323	157.600000
293.380463	156.920000
293.473602	156.800000
293.566742	156.900000
293.659882	157.500000
293.753021	157.740000
293.846191	157.500000
293.939331	157.200000
294.032471	156.720000
294.125610	156.300000
294.218781	156.100000
294.311920	156.720000
294.405060	157.020000
294.498230	156.840000
294.591370	156.840000
294.684540	156.260000
294.777679	155.400000
294.870850	155.920000
294.963959	156.160000
295.057159	156.220000
295.150299	156.780000
295.243469	156.860000
295.336609	155.980000
295.429779	155.940000
295.522919	156.240000
295.616089	156.000000
295.709229	156.660000
295.802399	156.940000
295.895569	156.500000
295.988708	156.160000
296.081879	156.820000
296.175018	156.100000
296.268188	155.980000
296.361359	156.920000
296.454529	157.240000
296.547668	156.440000
296.640839	157.020000
296.734009	156.920000
296.827179	156.740000
296.920319	156.900000
297.013519	156.780000
297.106659	156.840000
297.199860	157.040000
297.292999	156.660000
297.386200	155.780000
297.479309	155.760000
297.572510	155.440000
297.665680	155.060000
297.758850	155.340000
297.852020	155.540000
297.945190	155.280000
298.038361	154.920000
298.131531	156.040000
298.224701	155.680000
298.317871	155.460000
298.411072	155.400000
298.504242	155.400000
298.597412	154.520000
298.690582	155.000000
298.783752	155.560000
298.876923	156.200000
298.970093	156.140000
299.063293	156.760000
299.156464	156.640000
299.249634	156.560000
299.342834	156.860000
299.436005	157.380000
299.529205	156.860000
299.622345	157.060000
299.715576	156.540000
299.808716	156.160000
299.901917	156.160000
299.995117	156.640000
300.088287	156.640000
300.181488	156.680000
300.274658	156.360000
300.367828	156.280000
300.461029	156.040000
300.554199	156.380000
300.647400	156.660000
300.740601	157.220000
300.833771	157.040000
300.926971	157.140000
301.020142	156.240000
301.113342	156.060000
301.206512	156.180000
301.299713	156.820000
301.392914	156.640000
301.486084	157.100000
301.579285	157.060000
301.672516	157.440000
301.765686	156.820000
301.858887	156.760000
301.952057	156.520000
302.045288	156.620000
302.138458	156.120000
302.231659	156.000000
302.324860	156.240000
302.418060	156.460000
302.511261	156.660000
302.604462	156.740000
302.697662	156.820000
302.790863	156.260000
302.884064	155.960000
302.977264	155.780000
303.070465	155.680000
303.163666	156.600000
303.256866	157.560000
303.350067	157.500000
303.443268	157.760000
303.536469	158.020000
303.629669	157.000000
303.722870	156.580000
303.816071	156.560000
303.909271	156.280000
304.002472	155.580000
304.095673	155.660000
304.188934	155.080000
304.282104	156.260000
304.375336	156.440000
304.468506	156.740000
304.561768	156.580000
304.654968	157.140000
304.748169	155.840000
304.841370	155.640000
304.934601	156.020000
305.027802	155.620000
305.121002	155.060000
305.214233	155.460000
305.307434	155.340000
305.400665	155.620000
305.493866	156.100000
305.587097	156.520000
305.680298	156.300000
305.773499	156.980000
305.866730	156.500000
305.959930	157.020000
306.053162	157.380000
306.146393	157.380000
306.239594	156.580000
306.332825	156.560000
306.426025	156.760000
306.519287	156.340000
306.612488	156.620000
306.705719	156.820000
306.798920	156.940000
306.892181	156.080000
306.985352	155.380000
307.078613	154.780000
307.171844	155.320000
307.265045	154.760000
307.358276	154.560000
307.451508	155.440000
307.544739	156.000000
307.637970	155.320000
307.731201	155.500000
307.824402	156.380000
307.917633	156.580000
308.010864	157.100000
308.104095	157.780000
308.197327	158.040000
308.290558	157.720000
308.383789	157.180000
308.477020	156.440000
308.570251	155.640000
308.663483	155.200000
308.756714	154.980000
308.849976	154.900000
308.943176	155.500000
309.036438	155.600000
309.129639	155.640000
309.222900	155.800000
309.316101	156.000000
309.409393	155.360000
309.502625	155.380000
309.595856	155.280000
309.689087	155.440000
309.782318	155.320000
309.875580	155.380000
309.968811	155.500000
310.062042	155.460000
310.155273	155.380000
310.248535	156.220000
310.341766	155.980000
310.434998	155.680000
310.528259	155.800000
310.621490	156.040000
310.714722	154.980000
310.807983	155.340000
310.901215	155.420000
310.994476	155.580000
311.087708	155.180000
311.181000	155.680000
311.274200	155.340000
311.367462	155.600000
311.460693	155.340000
311.553986	155.980000
311.647186	155.960000
311.740479	156.820000
311.833710	156.460000
311.926971	156.800000
312.020203	156.040000
312.113464	155.920000
312.206726	155.120000
312.299957	155.720000
312.393219	156.160000
312.486481	156.660000
312.579712	156.740000
312.672974	156.980000
312.766235	156.580000
312.859497	156.220000
312.952759	155.780000
313.045990	156.320000
313.139252	155.720000
313.232513	156.200000
313.325775	156.400000
313.419037	156.600000
313.512299	155.840000
313.605530	156.560000
313.698822	156.540000
313.792053	156.340000
313.885345	155.820000
313.978577	156.100000
314.071869	155.460000
314.165131	155.380000
314.258392	155.520000
314.351654	155.720000
314.444916	154.920000
314.538177	156.080000
314.631439	156.420000
314.724701	156.000000
314.817993	156.380000
314.911255	157.160000
315.004517	156.320000
315.097778	155.900000
315.191040	156.660000
315.284302	156.920000
315.377594	156.560000
315.470856	156.540000
315.564117	155.980000
315.657379	155.180000
315.750671	154.500000
315.843933	155.080000
315.937195	154.920000
316.030518	155.260000
316.123749	155.520000
316.217041	156.620000
316.310303	156.120000
316.403595	156.340000
316.496857	156.480000
316.590149	156.640000
316.683411	155.540000
316.776703	155.640000
316.869965	155.940000
316.963257	155.860000
317.056519	155.040000
317.149811	154.980000
317.243073	154.900000
317.336365	154.960000
317.429626	155.280000
317.522919	156.260000
317.616180	156.660000
317.709473	156.500000
317.802765	156.220000
317.896027	155.980000
317.989319	156.380000
318.082611	156.140000
318.175873	155.900000
318.269165	155.800000
318.362488	155.780000
318.455750	154.980000
318.549042	155.300000
318.642303	156.100000
318.735626	155.920000
318.828888	156.040000
318.922211	155.520000
319.015472	156.040000
319.108765	155.120000
319.202057	154.920000
319.295349	155.180000
319.388641	155.720000
319.481934	155.360000
319.575226	155.860000
319.668518	156.280000
319.761810	156.480000
319.855103	156.620000
319.948395	156.500000
320.041687	156.700000
320.134979	156.760000
320.228271	156.200000
320.321564	155.980000
320.414856	155.960000
320.508148	155.280000
320.601440	155.280000
320.694763	155.000000
320.788025	155.900000
320.881348	155.840000
320.974640	156.280000
321.067963	155.560000
321.161224	156.080000
321.254547	155.240000
321.347839	155.940000
321.441162	155.680000
321.534454	156.040000
321.627747	155.580000
321.721069	156.160000
321.814362	155.960000
321.907654	156.240000
322.000946	156.680000
322.094269	157.360000
322.187561	156.920000
322.280884	156.940000
322.374176	156.800000
322.467468	156.940000
322.560791	156.840000
322.654083	157.340000
322.747406	157.360000
322.840698	157.800000
322.934021	158.100000
323.027344	157.840000
323.120636	157.320000
323.213959	157.160000
323.307251	156.700000
323.400574	156.080000
323.493866	155.720000
323.587219	155.900000
323.680511	156.080000
323.773834	156.200000
323.867157	156.200000
323.960449	156.720000
324.053772	156.420000
324.147095	156.340000
324.240387	156.860000
324.333710	156.720000
324.427032	156.800000
324.520355	156.780000
324.613647	156.200000
324.706970	155.980000
324.800293	156.060000
324.893616	156.040000
324.986938	156.460000
325.080231	156.700000
325.173553	156.920000
325.266876	157.420000
325.360199	157.260000
325.453522	156.620000
325.546875	156.220000
325.640167	156.260000
325.733521	156.520000
325.826813	157.120000
325.920166	157.120000
326.013489	157.140000
326.106812	156.040000
326.200134	155.200000
326.293457	154.140000
326.386780	154.500000
326.480103	154.540000
326.573425	154.880000
326.666748	155.140000
326.760071	155.800000
326.853424	155.780000
326.946747	156.300000
327.040070	157.500000
327.133392	157.100000
327.226715	156.380000
327.320068	155.900000
327.413391	156.080000
327.506714	154.880000
327.600037	155.140000
327.693390	155.480000
327.786713	155.480000
327.880066	155.300000
327.973358	155.780000
328.066742	156.420000
328.160034	156.780000
328.253418	157.580000
328.346710	157.200000
328.440063	157.080000
328.533417	156.320000
328.626740	156.520000
328.720093	156.120000
328.813416	156.220000
328.906769	156.140000
329.000092	156.600000
329.093445	156.340000
329.186768	156.160000
329.280121	156.800000
329.373444	157.140000
329.466797	157.140000
329.560120	157.040000
329.653473	157.260000
329.746796	156.520000
329.840149	156.040000
329.933502	155.840000
330.026825	155.880000
330.120178	155.880000
330.213562	155.640000
330.306854	155.760000
330.400238	155.600000
330.493561	155.540000
330.586945	156.280000
330.680237	156.880000
330.773621	157.160000
330.866974	157.440000
330.960327	157.500000
331.053680	157.020000
331.147003	157.320000
331.240356	157.440000
331.333710	157.360000
331.427063	157.180000
331.520416	156.820000
331.613770	156.100000
331.707123	156.100000
331.800476	156.260000
331.893829	157.120000
331.987152	157.300000
332.080505	157.600000
332.173859	157.340000
332.267212	156.680000
332.360565	155.780000
332.453918	155.260000
332.547333	155.020000
332.640656	155.080000
332.734039	155.560000
332.827362	155.500000
332.920746	156.040000
333.014069	156.540000
333.107452	156.940000
333.200806	157.180000
333.294159	157.520000
333.387543	157.180000
333.480896	156.440000
333.574249	155.840000
333.667603	155.540000
333.760956	155.520000
333.854340	155.820000
333.947693	156.300000
334.041046	156.340000
334.134430	156.500000
334.227783	156.200000
334.321136	155.960000
334.414520	155.640000
334.507874	155.640000
334.601227	155.480000
334.694611	155.740000
334.787964	155.960000
334.881348	156.400000
334.974701	156.680000
335.068085	156.460000
335.161438	156.780000
335.254822	156.580000
335.348175	156.500000
335.441559	156.020000
335.534943	156.980000
335.628296	156.460000
335.721680	156.300000
335.815033	156.320000
335.908417	156.820000
336.001770	156.180000
336.095154	156.180000
336.188538	156.020000
336.281891	155.540000
336.375275	155.000000
336.468658	154.800000
336.562012	155.060000
336.655396	155.580000
336.748779	156.300000
336.842133	156.500000
336.935516	156.980000
337.028900	156.580000
337.122284	156.320000
337.215637	156.140000
337.309021	155.860000
337.402435	155.500000
337.495789	155.400000
337.589203	155.480000
337.682526	155.060000
337.775940	155.640000
337.869324	155.780000
337.962708	155.400000
338.056091	155.980000
338.149475	155.880000
338.242859	155.660000
338.336243	155.460000
338.429626	156.000000
338.523010	155.440000
338.616394	155.720000
338.709778	155.680000
338.803162	155.940000
338.896545	155.900000
338.989929	155.580000
339.083313	155.500000
339.176697	155.240000
339.270081	154.920000
339.363464	155.440000
339.456848	156.100000
339.550232	155.660000
339.643616	155.820000
339.737030	155.960000
339.830383	155.620000
339.923828	155.560000
340.017181	156.000000
340.110596	156.220000
340.203949	155.880000
340.297363	155.640000
340.390778	155.520000
340.484161	155.240000
340.577545	155.220000
340.670959	155.780000
340.764343	155.880000
340.857727	155.920000
340.951111	155.700000
341.044525	155.600000
341.137909	154.880000
341.231293	154.920000
341.324707	154.500000
341.418091	155.400000
341.511505	155.600000
341.604889	156.120000
341.698303	156.140000
341.791687	156.360000
341.885071	155.700000
341.978485	155.180000
342.071899	155.480000
342.165283	155.620000
342.258698	156.000000
342.352081	156.540000
342.445496	157.520000
342.538879	157.160000
342.632324	157.200000
342.725708	156.820000
342.819122	156.220000
342.912506	155.780000
343.005920	155.760000
343.099335	156.140000
343.192719	156.240000
343.286133	156.380000
343.379547	156.080000
343.472931	156.240000
343.566345	155.520000
343.659760	155.540000
343.753143	155.320000
343.846558	155.320000
343.939972	155.240000
344.033386	155.700000
344.126770	155.360000
344.220184	155.540000
344.313599	156.120000
344.407043	156.060000
344.500427	155.680000
344.593872	156.440000
344.687225	156.580000
344.780670	156.220000
344.874054	156.440000
344.967499	156.900000
345.060913	156.520000
345.154327	156.200000
345.247742	155.620000
345.341156	155.060000
345.434570	154.560000
345.527985	154.680000
345.621399	154.800000
345.714813	155.040000
345.808228	155.480000
345.901642	155.400000
345.995056	155.080000
346.088470	155.340000
346.181885	155.500000
346.275299	154.800000
346.368713	154.780000
346.462128	154.660000
346.555573	154.760000
346.648987	155.260000
346.742401	155.680000
346.835815	156.320000
346.929260	156.180000
347.022644	155.920000
347.116119	155.620000
347.209503	156.060000
347.302948	156.640000
347.396362	157.480000
347.489807	157.920000
347.583221	158.560000
347.676636	158.260000
347.770050	157.080000
347.863495	156.260000
347.956909	155.940000
348.050323	155.260000
348.143768	155.200000
348.237183	155.220000
348.330597	155.900000
348.424042	156.220000
348.517456	156.480000
348.610901	156.580000
348.704315	156.500000
348.797760	155.740000
348.891174	155.360000
348.984619	154.660000
349.078033	155.200000
349.171448	156.100000
349.264923	156.100000
349.358337	155.940000
349.451782	156.420000
349.545197	155.440000
349.638641	154.600000
349.732086	154.320000
349.825500	155.280000
349.918945	155.160000
350.012390	155.980000
350.105804	156.620000
350.199249	157.260000
350.292664	156.840000
350.386108	156.820000
350.479553	157.000000
350.572968	156.680000
350.666412	156.620000
350.759857	156.680000
350.853302	157.180000
350.946716	156.480000
351.040161	156.440000
351.133606	156.400000
351.227081	155.980000
351.320465	156.440000
351.413940	156.860000
351.507355	157.140000
351.600830	157.340000
351.694244	157.180000
351.787720	156.680000
351.881104	156.600000
351.974579	156.300000
352.067993	157.060000
352.161469	157.200000
352.254883	156.720000
352.348358	156.460000
352.441803	156.360000
352.535248	155.640000
352.628693	156.040000
352.722137	156.000000
352.815582	156.360000
352.909027	156.640000
353.002472	156.600000
353.095917	156.280000
353.189362	156.680000
353.282806	156.240000
353.376251	156.060000
353.469696	155.780000
353.563141	156.300000
353.656586	155.940000
353.750061	155.700000
353.843475	155.800000
353.936981	156.460000
354.030396	155.640000
354.123871	155.620000
354.217285	156.900000
354.310760	157.160000
354.404175	156.860000
354.497681	156.880000
354.591095	156.800000
354.684570	155.440000
354.777985	154.880000
354.871490	154.600000
354.964935	155.060000
355.058380	155.440000
355.151855	155.380000
355.245300	155.940000
355.338745	156.280000
355.432220	156.160000
355.525665	155.540000
355.619110	156.180000
355.712585	155.740000
355.806030	155.280000
355.899475	155.100000
355.992950	155.700000
356.086426	156.200000
356.179871	156.260000
356.273346	156.560000
356.366791	156.520000
356.460266	156.620000
356.553711	155.920000
356.647186	156.120000
356.740631	155.920000
356.834106	155.920000
356.927551	155.840000
357.021027	156.120000
357.114471	156.200000
357.207947	156.600000
357.301422	156.980000
357.394867	156.980000
357.488342	157.160000
357.581818	157.100000
357.675262	157.140000
357.768738	157.000000
357.862213	156.420000
357.955658	156.320000
358.049133	156.220000
358.142609	156.140000
358.236053	155.820000
358.329529	156.180000
358.423035	156.160000
358.516449	155.880000
358.609955	156.380000
358.703400	157.080000
358.796906	157.200000
358.890350	156.680000
358.983826	156.820000
359.077271	156.000000
359.170776	155.720000
359.264221	155.500000
359.357727	155.720000
359.451172	156.240000
359.544647	156.440000
359.638123	156.480000
359.731598	156.660000
359.825073	157.180000
359.918549	156.880000
360.012024	157.100000
360.105499	156.620000
360.198975	156.720000
360.292450	156.520000
360.385925	156.620000
360.479401	156.140000
360.572876	156.680000
360.666351	156.800000
360.759857	156.160000
360.853302	155.920000
360.946808	155.760000
361.040253	155.460000
361.133759	155.020000
361.227203	155.580000
361.320709	155.420000
361.414154	156.040000
361.507660	156.240000
361.601105	156.840000
361.694641	157.760000
361.788086	157.640000
361.881592	158.060000
361.975067	157.820000
362.068542	157.960000
362.162018	157.200000
362.255524	156.900000
362.348999	156.300000
362.442474	156.580000
362.535950	156.120000
362.629456	155.940000
362.722931	156.120000
362.816406	156.460000
362.909882	156.700000
363.003387	156.380000
363.096863	156.580000
363.190338	156.540000
363.283875	156.080000
363.377319	155.780000
363.470825	156.420000
363.564301	155.660000
363.657806	156.240000
363.751282	156.140000
363.844788	157.180000
363.938232	156.780000
364.031769	157.660000
364.125214	157.720000
364.218750	158.300000
364.312225	157.020000
364.405731	157.060000
364.499207	156.720000
364.592712	156.360000
364.686188	156.120000
364.779694	156.280000
364.873169	156.380000
364.966675	156.340000
365.060150	156.560000
365.153656	156.780000
365.247131	156.740000
365.340637	156.760000
365.434143	157.460000
365.527618	157.240000
365.621155	156.340000
365.714600	156.520000
365.808136	156.760000
365.901611	155.260000
365.995117	155.200000
366.088593	155.520000
366.182129	155.240000
366.275604	155.320000
366.369110	156.100000
366.462585	156.000000
366.556122	156.720000
366.649567	156.800000
366.743103	156.440000
366.836609	156.220000
366.930115	156.460000
367.023590	156.160000
367.117096	156.000000
367.210602	155.740000
367.304108	156.480000
367.397614	157.120000
367.491119	157.520000
367.584595	157.800000
367.678101	158.360000
367.771606	157.760000
367.865112	157.200000
367.958649	156.140000
368.052124	155.880000
368.145660	155.540000
368.239136	156.180000
368.332672	156.080000
368.426147	156.720000
368.519684	156.720000
368.613159	156.980000
368.706696	156.360000
368.800171	156.500000
368.893707	155.980000
368.987183	156.200000
369.080719	156.060000
369.174225	155.980000
369.267731	156.160000
369.361237	156.360000
369.454742	156.140000
369.548248	156.480000
369.641754	156.300000
369.735260	155.960000
369.828766	155.460000
369.922272	156.340000
370.015808	155.740000
370.109314	155.800000
370.202820	155.700000
370.296356	156.880000
370.389832	156.360000
370.483368	156.540000
370.576874	156.320000
370.670410	156.540000
370.763885	155.380000
370.857422	155.460000
370.950928	154.960000
371.044464	156.020000
371.137939	156.260000
371.231476	157.080000
371.324982	157.220000
371.418518	158.020000
371.512024	157.600000
371.605560	157.220000
371.699066	157.080000
371.792572	156.740000
371.886108	157.100000
371.979614	156.740000
372.073120	157.320000
372.166656	157.360000
372.260162	157.480000
372.353668	156.940000
372.447205	156.920000
372.540710	156.520000
372.634277	156.400000
372.727753	156.620000
372.821320	156.660000
372.914795	156.820000
373.008362	156.760000
373.101837	156.900000
373.195404	156.560000
373.288879	156.360000
373.382446	157.200000
373.475922	157.220000
373.569489	157.680000
373.662964	157.980000
373.756531	157.900000
373.850037	157.560000
373.943573	157.360000
374.037109	156.480000
374.130615	156.760000
374.224152	156.800000
374.317657	156.520000
374.411194	157.400000
374.504730	157.440000
374.598236	156.940000
374.691772	156.780000
374.785309	156.780000
374.878815	155.660000
374.972351	156.180000
375.065887	156.040000
375.159454	156.880000
375.252930	156.680000
375.346497	157.440000
375.440002	157.940000
375.533569	158.160000
375.627045	157.620000
375.720612	157.800000
375.814117	157.880000
375.907684	157.260000
376.001160	157.000000
376.094727	156.380000
376.188232	156.860000
376.281799	156.800000
376.375336	156.840000
376.468872	157.360000
376.562408	157.900000
376.655914	157.440000
376.749451	157.300000
376.842987	157.360000
376.936523	157.160000
377.030060	157.080000
377.123596	157.000000
377.217133	156.280000
377.310669	156.100000
377.404205	156.300000
377.497772	156.520000
377.591278	156.580000
377.684845	157.720000
377.778351	157.880000
377.871918	157.540000
377.965424	156.980000
378.058990	156.760000
378.152496	156.360000
378.246063	156.320000
378.339569	156.460000
378.433136	156.800000
378.526642	156.760000
378.620209	156.740000
378.713745	156.240000
378.807312	156.580000
378.900848	156.620000
378.994385	156.980000
379.087921	156.200000
379.181458	156.900000
379.274994	156.080000
379.368530	155.680000
379.462097	155.800000
379.555634	156.680000
379.649170	155.980000
379.742706	156.220000
379.836273	156.660000
379.929810	156.420000
380.023376	155.940000
380.116882	156.040000
380.210449	155.800000
380.303986	155.340000
380.397552	155.040000
380.491058	155.200000
380.584656	155.040000
380.678162	155.560000
380.771729	155.600000
380.865265	156.560000
380.958832	156.760000
381.052368	157.200000
381.145935	157.320000
381.239471	157.980000
381.333008	157.600000
381.426575	157.120000
381.520111	157.420000
381.613647	157.400000
381.707214	156.940000
381.800751	156.520000
381.894318	157.300000
381.987854	156.560000
382.081421	156.440000
382.174988	156.540000
382.268524	156.220000
382.362091	155.760000
382.455627	156.860000
382.549194	156.400000
382.642731	155.920000
382.736298	156.020000
382.829834	155.720000
382.923401	155.840000
383.016937	156.300000
383.110504	157.040000
383.204041	157.200000
383.297607	157.860000
383.391174	156.920000
383.484741	157.480000
383.578278	156.880000
383.671844	156.520000
383.765411	155.620000
383.858948	156.100000
383.952515	155.440000
384.046051	156.000000
384.139618	156.700000
384.233185	157.280000
384.326721	157.180000
384.420288	157.700000
384.513855	157.520000
384.607422	157.540000
384.700989	157.800000
384.794525	157.260000
384.888123	157.300000
384.981659	157.600000
385.075226	156.920000
385.168762	156.320000
385.262360	156.860000
385.355896	155.780000
385.449463	155.480000
385.542999	155.720000
385.636597	156.500000
385.730164	156.240000
385.823730	156.420000
385.917267	156.060000
386.010834	156.260000
386.104401	156.000000
386.197968	156.480000
386.291534	156.840000
386.385101	157.040000
386.478668	157.420000
386.572235	157.140000
386.665802	156.500000
386.759338	156.260000
386.852905	156.340000
386.946472	155.800000
387.040070	156.040000
387.133606	156.100000
387.227203	155.960000
387.320740	156.160000
387.414337	155.680000
387.507874	155.540000
387.601471	155.700000
387.695007	155.600000
387.788605	155.200000
387.882141	155.900000
387.975739	156.020000
388.069275	155.920000
388.162872	156.160000
388.256439	156.160000
388.350037	155.920000
388.443604	155.720000
388.537170	155.940000
388.630737	156.520000
388.724304	156.820000
388.817871	156.760000
388.911438	156.640000
389.005005	156.680000
389.098602	156.540000
389.192169	156.080000
389.285736	156.840000
389.379333	156.940000
389.472870	156.360000
389.566467	156.060000
389.660034	156.360000
389.753632	155.320000
389.847168	155.920000
389.940765	156.500000
390.034332	156.740000
390.127930	156.300000
390.221466	156.380000
390.315063	155.580000
390.408630	154.760000
390.502228	154.020000
390.595795	154.640000
390.689362	154.800000
390.782959	155.540000
390.876526	156.380000
390.970093	156.460000
391.063690	156.860000
391.157257	157.000000
391.250824	157.040000
391.344421	156.580000
391.437988	157.260000
391.531555	157.260000
391.625153	157.540000
391.718750	157.600000
391.812317	157.740000
391.905914	157.160000
391.999481	157.020000
392.093079	156.940000
392.186615	157.040000
392.280243	157.020000
392.373779	157.540000
392.467407	157.840000
392.560944	157.760000
392.654572	157.020000
392.748108	156.980000
392.841736	157.180000
392.935303	156.680000
393.028900	156.420000
393.122467	156.640000
393.216064	156.380000
393.309631	155.340000
393.403229	155.140000
393.496796	155.160000
393.590393	154.500000
393.683990	154.700000
393.777557	155.620000
393.871155	155.540000
393.964722	156.120000
394.058350	156.460000
394.151917	156.680000
394.245514	156.260000
394.339081	156.840000
394.432678	156.780000
394.526245	156.940000
394.619873	156.680000
394.713409	156.920000
394.807037	156.520000
394.900604	156.240000
394.994202	156.460000
395.087769	156.600000
395.181396	156.120000
395.274994	156.980000
395.368561	156.320000
395.462158	156.200000
395.555756	155.660000
395.649353	156.040000
395.742920	155.280000
395.836517	156.620000
395.930115	155.920000
396.023712	156.600000
396.117279	156.780000
396.210876	156.360000
396.304474	155.660000
396.398071	156.560000
396.491669	156.720000
396.585266	156.520000
396.678833	156.500000
396.772461	156.760000
396.866028	156.400000
396.959656	156.260000
397.053223	156.520000
397.146851	156.280000
397.240417	156.000000
397.334015	156.720000
397.427582	156.460000
397.521210	156.320000
397.614807	156.940000
397.708405	157.200000
397.802002	156.560000
397.895599	157.120000
397.989197	157.200000
398.082794	156.980000
398.176392	157.480000
398.269989	157.620000
398.363586	157.600000
398.457184	158.520000
398.550781	159.300000
398.644379	158.940000
398.737976	159.600000
398.831573	160.840000
398.925201	161.700000
399.018768	164.780000
399.112396	169.940000
399.205963	178.240000
399.299591	191.600000
399.393158	214.080000
399.486786	254.740000
399.580353	328.980000
399.673981	458.360000
399.767578	652.740000
399.861206	899.700000
399.954773	1155.220000
400.048401	1350.600000
400.141998	1431.400000
400.235596	1375.040000
400.329193	1200.000000
400.422791	957.440000
400.516418	714.480000
400.610016	514.040000
400.703613	372.820000
400.797211	283.100000
400.890808	230.860000
400.984436	202.420000
401.078033	186.160000
401.171631	176.360000
401.265259	171.400000
401.358826	167.960000
401.452484	165.600000
401.546051	164.160000
401.639679	163.020000
401.733246	161.940000
401.826904	160.960000
401.920471	159.280000
402.014099	158.640000
402.107697	158.380000
402.201324	158.140000
402.294891	158.100000
402.388550	158.620000
402.482147	158.680000
402.575745	158.240000
402.669373	157.780000
402.762970	157.420000
402.856567	157.180000
402.950195	157.360000
403.043793	157.280000
403.137390	157.880000
403.231018	157.220000
403.324615	157.980000
403.418243	157.040000
403.511841	157.580000
403.605469	157.340000
403.699066	157.880000
403.792694	157.640000
403.886292	158.060000
403.979919	157.600000
404.073517	157.200000
404.167145	157.340000
404.260712	157.180000
404.354370	156.900000
404.447937	157.180000
404.541595	157.420000
404.635162	157.860000
404.728821	158.360000
404.822418	158.300000
404.916046	158.100000
405.009644	158.380000
405.103271	158.240000
405.196899	157.420000
405.290497	157.440000
405.384125	157.680000
405.477722	157.020000
405.571350	156.400000
405.664948	156.680000
405.758575	156.540000
405.852203	155.940000
405.945801	156.200000
406.039429	156.160000
406.133057	155.880000
406.226654	155.920000
406.320312	155.960000
406.413879	156.040000
406.507538	156.800000
406.601135	156.460000
406.694763	157.060000
406.788361	157.160000
406.882019	156.860000
406.975586	156.780000
407.069244	157.680000
407.162872	157.440000
407.256470	157.260000
407.350098	157.120000
407.443726	156.480000
407.537323	155.620000
407.630951	155.840000
407.724579	155.320000
407.818207	155.920000
407.911804	155.780000
408.005432	155.680000
408.099060	155.760000
408.192688	156.540000
408.286285	156.080000
408.379913	155.740000
408.473572	156.300000
408.567169	155.620000
408.660828	155.480000
408.754395	155.420000
408.848053	156.100000
408.941650	156.000000
409.035309	155.800000
409.128906	155.720000
409.222565	155.740000
409.316132	155.720000
409.409790	155.380000
409.503387	155.360000
409.597046	155.600000
409.690674	155.960000
409.784302	155.840000
409.877930	155.980000
409.971558	156.500000
410.065186	156.260000
410.158783	156.080000
410.252411	156.160000
410.346039	156.360000
410.439667	156.000000
410.533295	156.400000
410.626923	156.620000
410.720551	156.480000
410.814209	156.780000
410.907806	156.860000
411.001465	155.960000
411.095062	156.260000
411.188721	156.280000
411.282318	155.680000
411.375977	155.500000
411.469574	155.960000
411.563232	155.360000
411.656830	155.080000
411.750488	155.160000
411.844086	155.120000
411.937744	155.640000
412.031372	155.440000
412.125000	155.520000
412.218628	155.780000
412.312256	156.600000
412.405884	156.620000
412.499512	156.940000
412.593170	157.540000
412.686798	157.620000
412.780426	156.660000
412.874054	156.900000
412.967682	156.740000
413.061310	156.800000
413.154968	156.880000
413.248566	157.120000
413.342224	156.220000
413.435852	156.180000
413.529510	155.480000
413.623108	154.820000
413.716766	155.060000
413.810364	155.740000
413.904022	155.540000
413.997650	155.340000
414.091309	156.160000
414.184906	156.020000
414.278564	155.540000
414.372192	156.000000
414.465851	156.840000
414.559479	156.480000
414.653107	157.380000
414.746735	157.280000
414.840393	157.380000
414.934021	157.380000
415.027649	156.980000
415.121277	156.420000
415.214935	156.840000
415.308563	156.800000
415.402191	156.020000
415.495850	156.200000
415.589478	155.940000
415.683136	155.420000
415.776733	155.600000
415.870422	156.080000
415.964020	155.720000
416.057678	156.000000
416.151306	156.480000
416.244965	156.060000
416.338562	156.120000
416.432251	157.000000
416.525848	157.720000
416.619507	157.820000
416.713165	158.360000
416.806793	158.300000
416.900421	158.320000
416.994080	156.960000
417.087708	156.760000
417.181366	156.300000
417.274994	156.260000
417.368622	156.160000
417.462280	157.280000
417.555908	157.240000
417.649567	157.180000
417.743195	157.180000
417.836853	157.120000
417.930481	156.460000
418.024170	156.800000
418.117767	157.100000
418.211426	157.260000
418.305054	157.420000
418.398712	157.300000
418.492340	156.900000
418.585999	156.980000
418.679626	157.120000
418.773285	156.980000
418.866913	157.360000
418.960571	157.840000
419.054230	158.000000
419.147858	157.960000
419.241516	158.300000
419.335144	158.040000
419.428802	157.640000
419.522461	157.220000
419.616089	157.040000
419.709747	156.860000
419.803375	157.140000
419.897034	157.080000
419.990662	157.060000
420.084320	157.400000
420.177979	157.420000
420.271606	157.640000
420.365295	158.200000
420.458893	158.480000
420.552582	158.500000
420.646210	158.180000
420.739868	157.540000
420.833496	157.080000
420.927155	156.480000
421.020782	156.020000
421.114471	155.880000
421.208069	156.140000
421.301758	156.320000
421.395386	156.600000
421.489044	156.640000
421.582703	156.860000
421.676361	157.380000
421.769989	157.020000
421.863647	157.580000
421.957306	157.860000
422.050934	158.040000
422.144592	157.820000
422.238251	157.620000
422.331909	157.060000
422.425537	156.740000
422.519196	156.700000
422.612854	155.960000
422.706543	155.920000
422.800140	156.420000
422.893829	156.020000
422.987457	155.260000
423.081146	155.820000
423.174744	156.360000
423.268433	155.720000
423.362061	155.980000
423.455750	156.240000
423.549347	156.160000
423.643036	155.360000
423.736664	156.080000
423.830353	156.060000
423.924011	156.540000
424.017639	156.060000
424.111298	156.380000
424.204956	156.000000
424.298615	156.080000
424.392273	155.820000
424.485931	156.120000
424.579559	156.220000
424.673218	156.200000
424.766876	156.580000
424.860535	156.300000
424.954193	156.120000
425.047882	156.680000
425.141510	156.480000
425.235199	156.240000
425.328796	156.300000
425.422485	156.660000
425.516113	155.980000
425.609802	156.040000
425.703430	155.980000
425.797119	155.760000
425.890747	155.760000
425.984436	156.080000
426.078064	156.260000
426.171753	156.360000
426.265411	156.380000
426.359070	156.240000
426.452728	156.140000
426.546356	156.180000
426.640015	156.180000
426.733673	156.460000
426.827332	156.220000
426.920990	156.800000
427.014648	156.280000
427.108307	156.500000
427.201965	156.920000
427.295624	157.460000
427.389282	156.580000
427.482941	157.100000
427.576630	156.760000
427.670258	156.060000
427.763947	155.860000
427.857574	156.320000
427.951263	156.260000
428.044922	156.500000
428.138611	156.920000
428.232239	157.340000
428.325928	157.920000
428.419556	158.340000
428.513245	157.880000
428.606903	157.760000
428.700562	157.160000
428.794220	156.140000
428.887878	155.580000
428.981537	156.220000
429.075195	156.500000
429.168854	156.940000
429.262512	157.380000
429.356201	157.480000
429.449860	157.060000
429.543518	156.940000
429.637177	157.260000
429.730835	157.260000
429.824493	157.400000
429.918182	157.560000
430.011810	157.080000
430.105530	156.180000
430.199158	156.020000
430.292847	156.120000
430.386475	156.160000
430.480164	156.320000
430.573792	156.140000
430.667511	156.580000
430.761139	156.500000
430.854828	156.900000
430.948456	157.120000
431.042145	158.160000
431.135834	157.500000
431.229492	157.600000
431.323151	157.660000
431.416809	157.620000
431.510468	157.000000
431.604156	157.180000
431.697815	157.440000
431.791473	156.620000
431.885132	156.360000
431.978821	156.880000
432.072479	157.360000
432.166138	157.200000
432.259827	157.860000
432.353485	158.200000
432.447174	157.980000
432.540802	157.760000
432.634491	157.860000
432.728149	158.000000
432.821838	158.600000
432.915466	158.320000
433.009186	158.620000
433.102814	157.880000
433.196503	157.460000
433.290131	157.160000
433.383850	157.540000
433.477509	157.420000
433.571167	158.580000
433.664856	159.040000
433.758514	159.420000
433.852173	159.580000
433.945862	159.160000
434.039520	158.780000
434.133179	158.160000
434.226868	157.520000
434.320526	156.540000
434.414185	157.500000
434.507874	156.820000
434.601562	157.100000
434.695221	157.260000
434.788910	157.960000
434.882538	157.600000
434.976257	157.500000
435.069885	157.360000
435.163574	157.540000
435.257233	157.140000
435.350922	156.940000
435.444580	156.760000
435.538269	156.660000
435.631897	156.820000
435.725616	157.520000
435.819275	157.880000
435.912964	158.880000
436.006622	159.140000
436.100311	159.000000
436.193970	157.820000
436.287628	157.360000
436.381317	156.740000
436.474976	156.260000
436.568665	155.640000
436.662323	156.120000
436.756012	156.380000
436.849670	156.420000
436.943390	156.400000
437.037018	156.640000
437.130737	156.540000
437.224365	156.040000
437.318085	156.220000
437.411713	156.560000
437.505432	156.960000
437.599060	157.900000
437.692780	158.660000
437.786407	158.680000
437.880127	158.860000
437.973755	158.540000
438.067474	157.620000
438.161133	157.380000
438.254822	157.680000
438.348480	157.000000
438.442169	157.660000
438.535828	158.100000
438.629517	157.360000
438.723175	156.680000
438.816864	157.660000
438.910553	156.960000
439.004211	156.720000
439.097900	156.780000
439.191559	156.980000
439.285248	156.040000
439.378906	156.300000
439.472626	156.240000
439.566284	156.360000
439.659973	156.480000
439.753632	156.500000
439.847321	156.900000
439.940979	156.940000
440.034698	157.120000
440.128326	156.640000
440.222046	156.380000
440.315674	155.160000
440.409393	155.200000
440.503082	154.940000
440.596741	155.480000
440.690430	155.940000
440.784088	156.180000
440.877777	155.780000
440.971466	155.900000
441.065125	155.340000
441.158813	155.080000
441.252502	155.300000
441.346161	155.720000
441.439850	155.960000
441.533539	155.820000
441.627197	156.120000
441.720886	156.000000
441.814606	156.560000
441.908234	156.780000
442.001953	157.080000
442.095612	157.040000
442.189301	157.260000
442.282959	157.080000
442.376678	156.280000
442.470306	157.060000
442.564026	157.060000
442.657684	157.100000
442.751404	156.740000
442.845032	157.740000
442.938751	156.760000
443.032440	156.620000
443.126099	156.340000
443.219788	156.640000
443.313477	156.200000
443.407166	156.660000
443.500824	156.940000
443.594513	157.200000
443.688202	157.080000
443.781891	156.740000
443.875549	156.280000
443.969238	156.200000
444.062927	156.280000
444.156647	155.860000
444.250275	156.280000
444.343994	156.600000
444.437653	156.600000
444.531372	156.140000
444.625031	155.920000
444.718719	155.360000
444.812378	155.460000
444.906097	155.320000
444.999756	155.080000
445.093445	155.300000
445.187103	155.680000
445.280823	156.020000
445.374512	155.680000
445.468201	155.800000
445.561859	155.580000
445.655548	155.380000
445.749237	154.740000
445.842926	155.160000
445.936615	155.920000
446.030304	155.880000
446.123962	156.160000
446.217651	155.960000
446.311340	156.220000
446.405029	155.540000
446.498749	155.420000
446.592407	154.920000
446.686096	155.440000
446.779755	155.380000
446.873474	155.740000
446.967133	156.320000
447.060852	156.040000
447.154510	155.780000
447.248230	155.540000
447.341858	155.660000
447.435577	155.220000
447.529236	155.380000
447.622955	155.100000
447.716644	155.180000
447.810333	155.000000
447.904022	155.620000
447.997711	155.860000
448.091400	156.320000
448.185059	156.320000
448.278748	156.480000
448.372437	156.020000
448.466125	156.360000
448.559814	156.240000
448.653503	156.680000
448.747192	156.960000
448.840912	157.360000
448.934570	157.020000
449.028290	157.400000
449.121948	156.900000
449.215637	156.260000
449.309296	156.120000
449.403015	156.460000
449.496674	156.260000
449.590393	156.340000
449.684052	156.060000
449.777771	156.780000
449.871429	156.040000
449.965149	155.780000
450.058838	155.980000
450.152527	156.860000
450.246216	156.140000
450.339905	156.380000
450.433594	156.420000
450.527283	157.140000
450.620972	156.700000
450.714661	156.680000
450.808350	156.860000
450.902039	156.840000
450.995728	155.980000
451.089417	155.680000
451.183105	155.620000
451.276794	156.480000
451.370514	156.020000
451.464172	155.420000
451.557892	155.280000
451.651550	155.520000
451.745270	154.860000
451.838928	154.560000
451.932648	155.220000
452.026306	156.040000
452.120026	155.820000
452.213684	155.880000
452.307404	156.620000
452.401062	156.540000
452.494781	156.500000
452.588470	156.560000
452.682159	156.360000
452.775848	156.400000
452.869537	155.900000
452.963226	155.680000
453.056915	155.660000
453.150604	155.640000
453.244293	155.700000
453.337982	156.780000
453.431671	156.840000
453.525360	157.120000
453.619049	157.120000
453.712769	156.900000
453.806427	155.900000
453.900146	155.460000
453.993805	155.240000
454.087555	155.700000
454.181213	155.800000
454.274933	156.100000
454.368591	156.060000
454.462311	155.740000
454.555969	155.160000
454.649689	156.200000
454.743347	155.820000
454.837067	156.700000
454.930756	157.580000
455.024445	157.780000
455.118134	156.760000
455.211853	157.180000
455.305542	156.640000
455.399231	156.020000
455.492920	155.780000
455.586609	156.020000
455.680298	156.400000
455.773987	155.720000
455.867676	155.800000
455.961365	156.340000
456.055084	156.040000
456.148773	155.380000
456.242493	156.020000
456.336151	155.860000
456.429871	156.000000
456.523529	156.540000
456.617249	156.640000
456.710907	157.280000
456.804626	157.120000
456.898315	156.380000
456.992035	156.320000
457.085693	155.980000
457.179413	154.940000
457.273102	156.160000
457.366791	156.660000
457.460480	156.760000
457.554199	157.660000
457.647888	158.120000
457.741577	157.080000
457.835266	156.880000
457.928955	156.780000
458.022644	156.520000
458.116364	156.520000
458.210052	156.400000
458.303741	156.620000
458.397461	156.040000
458.491119	155.400000
458.584839	155.260000
458.678528	155.180000
458.772247	154.720000
458.865906	155.380000
458.959625	156.600000
459.053284	156.680000
459.147003	156.600000
459.240692	157.100000
459.334412	156.920000
459.428070	156.040000
459.521790	156.000000
459.615479	156.200000
459.709198	156.440000
459.802887	155.720000
459.896576	155.700000
459.990265	155.820000
460.083954	155.980000
460.177673	155.020000
460.271362	155.440000
460.365051	155.320000
460.458740	155.100000
460.552429	154.560000
460.646149	155.020000
460.739838	154.760000
460.833527	155.160000
460.927246	155.000000
461.020905	155.420000
461.114655	155.320000
461.208313	155.640000
461.302032	154.980000
461.395691	155.540000
461.489441	155.200000
461.583099	155.200000
461.676819	154.800000
461.770477	155.640000
461.864197	154.980000
461.957916	155.320000
462.051605	154.920000
462.145294	156.160000
462.238983	155.700000
462.332703	156.520000
462.426392	157.220000
462.520081	157.720000
462.613770	156.880000
462.707489	157.160000
462.801178	156.480000
462.894867	156.020000
462.988556	156.120000
463.082275	156.320000
463.175964	155.800000
463.269684	156.300000
463.363342	156.060000
463.457092	155.340000
463.550751	155.560000
463.644470	155.860000
463.738129	155.500000
463.831879	155.700000
463.925537	156.620000
464.019257	156.400000
464.112946	156.440000
464.206665	156.280000
464.300323	156.240000
464.394043	156.060000
464.487762	156.280000
464.581451	156.600000
464.675140	156.460000
464.768829	156.780000
464.862549	156.740000
464.956238	156.600000
465.049927	156.420000
465.143646	156.940000
465.237335	156.720000
465.331024	157.080000
465.424713	156.920000
465.518433	156.860000
465.612152	156.560000
465.705811	156.260000
465.799561	155.940000
465.893219	155.780000
465.986938	155.660000
466.080597	155.460000
466.174347	155.920000
466.268005	155.820000
466.361725	155.900000
466.455414	155.980000
466.549133	155.900000
466.642792	155.580000
466.736542	155.160000
466.830231	155.140000
466.923920	155.000000
467.017609	155.560000
467.111328	155.400000
467.205017	155.560000
467.298706	155.540000
467.392426	155.780000
467.486115	155.840000
467.579803	155.460000
467.673523	156.020000
467.767212	156.420000
467.860901	156.260000
467.954651	156.300000
468.048309	156.800000
468.142029	156.540000
468.235718	156.420000
468.329437	156.300000
468.423096	156.080000
468.516846	155.920000
468.610504	155.420000
468.704224	154.940000
468.797913	155.040000
468.891632	155.280000
468.985291	155.160000
469.079010	155.540000
469.172729	155.540000
469.266418	155.980000
469.360107	155.680000
469.453827	155.820000
469.547516	155.840000
469.641205	156.260000
469.734924	156.280000
469.828613	156.780000
469.922302	156.980000
470.016022	157.080000
470.109711	156.920000
470.203430	156.220000
470.297150	155.080000
470.390808	155.400000
470.484558	155.380000
470.578217	155.940000
470.671936	156.660000
470.765625	157.720000
470.859344	157.080000
470.953003	157.220000
471.046753	156.540000
471.140411	155.940000
471.234131	155.860000
471.327820	156.680000
471.421539	156.380000
471.515228	156.120000
471.608948	155.920000
471.702637	155.260000
471.796326	154.540000
471.890045	154.960000
471.983734	155.140000
472.077423	155.160000
472.171143	155.740000
472.264832	155.840000
472.358521	155.520000
472.452240	155.580000
472.545929	156.160000
472.639648	156.180000
472.733337	156.780000
472.827057	156.920000
472.920746	156.920000
473.014465	157.300000
473.108124	157.120000
473.201874	156.660000
473.295532	156.320000
473.389252	157.040000
473.482941	156.900000
473.576660	156.660000
473.670319	156.560000
473.764069	156.920000
473.857727	156.660000
473.951477	156.480000
474.045166	157.440000
474.138855	157.480000
474.232574	157.480000
474.326263	157.400000
474.419952	157.220000
474.513672	156.520000
474.607361	156.500000
474.701050	156.540000
474.794769	156.620000
474.888458	157.100000
474.982178	157.120000
475.075867	157.160000
475.169586	157.160000
475.263275	156.960000
475.356995	156.500000
475.450653	156.220000
475.544403	155.900000
475.638062	156.540000
475.731812	156.020000
475.825470	155.900000
475.919189	156.460000
476.012878	156.820000
476.106598	155.760000
476.200256	156.280000
476.294006	156.500000
476.387695	156.320000
476.481384	155.940000
476.575104	156.260000
476.668793	156.140000
476.762512	155.660000
476.856201	156.100000
476.949890	155.960000
477.043610	155.420000
477.137299	155.220000
477.230988	155.920000
477.324707	155.740000
477.418396	156.640000
477.512146	157.080000
477.605804	157.060000
477.699524	156.900000
477.793213	156.260000
477.886932	155.540000
477.980591	155.160000
478.074341	155.020000
478.167999	154.120000
478.261749	154.400000
478.355408	154.480000
478.449127	155.200000
478.542816	156.400000
478.636536	157.500000
478.730225	157.740000
478.823944	157.960000
478.917633	157.720000
479.011322	157.340000
479.105042	157.380000
479.198730	157.460000
479.292450	157.300000
479.386139	157.500000
479.479828	157.480000
479.573547	157.340000
479.667267	156.940000
479.760925	156.980000
479.854675	156.920000
479.948334	156.820000
480.042084	156.220000
480.135742	156.420000
480.229462	156.040000
480.323151	155.840000
480.416870	155.200000
480.510529	155.360000
480.604279	154.900000
480.697937	155.800000
480.791656	155.620000
480.885345	155.600000
480.979065	156.020000
481.072754	156.580000
481.166473	156.680000
481.260132	156.920000
481.353882	156.920000
481.447540	156.400000
481.541260	156.460000
481.635010	155.680000
481.728668	155.300000
481.822388	155.340000
481.916077	155.880000
482.009796	155.500000
482.103485	155.640000
482.197205	155.980000
482.290863	156.260000
482.384613	155.780000
482.478271	155.620000
482.571991	155.740000
482.665680	155.540000
482.759399	156.220000
482.853058	156.640000
482.946808	156.600000
483.040466	156.360000
483.134216	156.140000
483.227875	155.360000
483.321594	155.760000
483.415283	156.000000
483.509003	155.900000
483.602661	155.860000
483.696411	156.100000
483.790070	155.500000
483.883789	155.600000
483.977478	156.080000
484.071198	156.300000
484.164917	155.980000
484.258606	155.780000
484.352325	155.820000
484.445984	155.760000
484.539734	155.740000
484.633392	155.240000
484.727142	155.940000
484.820801	155.920000
484.914520	155.920000
485.008209	156.340000
485.101929	157.280000
485.195587	156.620000
485.289337	156.480000
485.382996	156.280000
485.476715	156.040000
485.570404	156.140000
485.664124	156.340000
485.757782	156.940000
485.851532	156.720000
485.945190	156.540000
486.038910	156.440000
486.132599	157.100000
486.226318	156.140000
486.319977	156.500000
486.413727	156.880000
486.507446	156.380000
486.601105	155.460000
486.694855	155.560000
486.788513	155.420000
486.882233	155.240000
486.975922	155.320000
487.069641	155.240000
487.163300	155.300000
487.257050	156.260000
487.350708	156.040000
487.444427	155.860000
487.538116	156.020000
487.631836	155.920000
487.725494	155.160000
487.819214	155.140000
487.912903	155.480000
488.006622	155.800000
488.100281	155.960000
488.194031	155.920000
488.287689	156.660000
488.381409	157.120000
488.475098	156.860000
488.568817	156.840000
488.662476	156.700000
488.756226	155.940000
488.849945	155.080000
488.943604	155.280000
489.037354	155.720000
489.131012	155.520000
489.224731	155.540000
489.318390	155.640000
489.412140	155.700000
489.505798	155.420000
489.599518	155.300000
489.693207	155.680000
489.786926	155.820000
489.880585	155.540000
489.974335	155.980000
490.067993	157.240000
490.161713	157.600000
490.255371	158.320000
490.349121	158.600000
490.442780	158.100000
490.536499	156.940000
490.630188	156.720000
490.723907	155.960000
490.817566	155.800000
490.911285	156.080000
491.004974	155.920000
491.098694	155.440000
491.192413	156.220000
491.286102	156.100000
491.379822	156.020000
491.473480	156.860000
491.567200	157.180000
491.660889	156.280000
491.754608	156.400000
491.848267	156.180000
491.941986	155.520000
492.035675	155.240000
492.129395	155.780000
492.223053	155.700000
492.316772	156.000000
492.410461	156.120000
492.504181	156.480000
492.597839	156.060000
492.691559	156.020000
492.785248	155.880000
492.878967	156.360000
492.972626	155.940000
493.066345	156.160000
493.160034	155.880000
493.253754	155.820000
493.347412	155.060000
493.441132	155.040000
493.534882	155.480000
493.628540	155.920000
493.722260	156.240000
493.815918	156.820000
493.909668	157.420000
494.003326	157.640000
494.097046	157.620000
494.190704	157.340000
494.284454	157.000000
494.378113	157.120000
494.471832	156.740000
494.565491	156.220000
494.659210	156.180000
494.752899	156.260000
494.846619	155.680000
494.940277	155.640000
495.033997	156.000000
495.127686	156.020000
495.221405	155.800000
495.315063	156.020000
495.408783	155.900000
495.502441	155.780000
495.596191	155.800000
495.689850	155.860000
495.783569	156.180000
495.877228	156.260000
495.970947	156.080000
496.064697	156.020000
496.158356	156.780000
496.252075	156.540000
496.345734	156.120000
496.439453	157.540000
496.533142	157.860000
496.626862	158.160000
496.720520	157.920000
496.814240	158.520000
496.907898	157.480000
497.001617	157.260000
497.095306	156.160000
497.189026	156.180000
497.282684	155.980000
497.376404	156.500000
497.470062	156.200000
497.563782	156.540000
497.657471	156.820000
497.751190	156.640000
497.844849	156.140000
497.938568	156.600000
498.032227	156.760000
498.125946	156.300000
498.219635	156.580000
498.313354	156.840000
498.407074	156.520000
498.500732	156.600000
498.594452	156.820000
498.688110	156.100000
498.781830	155.820000
498.875519	155.840000
498.969238	155.600000
499.062897	155.460000
499.156616	156.520000
499.250275	156.560000
499.343994	156.240000
499.437653	156.160000
499.531372	156.640000
499.625061	156.740000
499.718781	156.820000
499.812439	157.620000
499.906158	157.540000
499.999817	157.120000
500.093536	156.380000
500.187195	156.380000
500.280914	156.000000
500.374573	156.300000
500.468323	156.100000
500.561981	156.300000
500.655701	155.940000
500.749420	155.700000
500.843079	155.660000
500.936798	156.020000
501.030457	156.340000
501.124176	156.820000
501.217834	156.740000
501.311554	156.740000
501.405212	156.480000
501.498962	155.740000
501.592621	155.460000
501.686340	156.160000
501.779999	156.180000
501.873718	156.200000
501.967377	156.700000
502.061096	156.800000
502.154755	156.060000
502.248474	155.960000
502.342133	156.220000
502.435852	155.940000
502.529510	156.700000
502.623230	157.520000
502.716888	157.020000
502.810608	156.900000
502.904266	157.440000
502.997986	156.400000
503.091705	155.860000
503.185364	156.120000
503.279083	156.320000
503.372772	156.020000
503.466492	155.880000
503.560150	155.880000
503.653870	156.240000
503.747528	155.960000
503.841248	155.720000
503.934906	156.000000
504.028625	155.740000
504.122284	155.680000
504.216003	156.480000
504.309662	156.180000
504.403381	156.440000
504.497040	157.000000
504.590759	156.560000
504.684418	156.460000
504.778137	157.100000
504.871796	157.420000
504.965515	157.000000
505.059174	157.220000
505.152893	156.160000
505.246521	155.580000
505.340240	154.940000
505.433899	155.120000
505.527618	155.300000
505.621338	156.020000
505.714996	156.120000
505.808716	156.360000
505.902374	156.620000
505.996094	156.540000
506.089752	156.400000
506.183472	156.660000
506.277130	156.820000
506.370850	156.840000
506.464508	156.820000
506.558228	156.860000
506.651886	156.560000
506.745605	156.400000
506.839264	156.340000
506.932983	156.420000
507.026611	156.300000
507.120331	156.920000
507.213989	156.300000
507.307709	156.260000
507.401367	156.400000
507.495087	157.280000
507.588745	156.780000
507.682465	158.200000
507.776123	157.880000
507.869843	157.640000
507.963531	157.260000
508.057190	157.680000
508.150909	156.620000
508.244568	156.900000
508.338287	156.800000
508.431946	156.060000
508.525665	155.400000
508.619324	155.620000
508.713013	156.040000
508.806671	156.680000
508.900391	157.900000
508.994049	158.280000
509.087769	157.900000
509.181427	157.380000
509.275146	156.900000
509.368774	155.740000
509.462494	155.800000
509.556152	156.040000
509.649872	156.780000
509.743530	156.820000
509.837250	157.000000
509.930878	157.220000
510.024597	157.040000
510.118256	156.200000
510.211975	156.140000
510.305695	156.160000
510.399353	156.360000
510.493042	156.860000
510.586700	157.180000
510.680420	157.660000
510.774078	157.420000
510.867798	157.300000
510.961426	156.780000
511.055145	156.720000
511.148804	156.340000
511.242523	157.080000
511.336151	156.940000
511.429871	157.260000
511.523529	156.880000
511.617249	156.560000
511.710876	156.120000
511.804596	155.900000
511.898254	155.680000
511.991974	156.200000
512.085632	155.960000
512.179321	156.260000
512.272949	156.600000
512.366699	157.120000
512.460327	156.900000
512.554077	158.240000
512.647766	157.920000
512.741394	157.660000
512.835144	157.620000
512.928772	157.380000
513.022461	156.640000
513.116150	156.240000
513.209839	156.440000
513.303467	155.820000
513.397217	155.600000
513.490845	155.520000
513.584595	155.620000
513.678223	155.320000
513.771912	155.020000
513.865601	155.440000
513.959290	155.180000
514.052917	155.380000
514.146667	155.840000
514.240295	156.540000
514.333984	156.360000
514.427673	155.920000
514.521362	156.360000
514.614990	156.000000
514.708740	156.040000
514.802368	156.360000
514.896057	157.120000
514.989746	157.460000
515.083435	157.340000
515.177124	157.180000
515.270752	156.740000
515.364502	156.500000
515.458130	156.240000
515.551819	156.120000
515.645508	155.900000
515.739197	156.000000
515.832825	156.100000
515.926575	155.700000
516.020203	156.280000
516.113892	156.880000
516.207520	157.060000
516.301270	157.380000
516.394897	157.420000
516.488586	157.480000
516.582275	157.420000
516.675964	156.500000
516.769592	156.320000
516.863281	156.860000
516.956970	156.740000
517.050659	156.520000
517.144287	157.100000
517.238037	157.020000
517.331665	156.200000
517.425354	155.620000
517.519043	155.520000
517.612732	156.060000
517.706421	155.960000
517.800049	155.820000
517.893738	155.740000
517.987427	155.620000
518.081116	155.260000
518.174744	154.980000
518.268433	155.620000
518.362122	156.340000
518.455811	156.480000
518.549438	157.160000
518.643127	158.300000
518.736816	158.080000
518.830505	157.320000
518.924133	157.140000
519.017822	157.000000
519.111511	156.360000
519.205200	156.580000
519.298828	156.540000
519.392517	156.280000
519.486206	156.240000
519.579895	156.340000
519.673523	155.860000
519.767212	156.020000
519.860901	156.860000
519.954590	156.400000
520.048279	155.820000
520.141907	155.880000
520.235596	156.820000
520.329224	156.440000
520.422974	156.340000
520.516602	156.480000
520.610291	156.140000
520.703918	155.760000
520.797607	155.560000
520.891296	155.800000
520.984985	156.000000
521.078613	156.700000
521.172302	156.200000
521.265930	157.080000
521.359680	157.300000
521.453308	157.160000
521.546997	156.780000
521.640625	156.980000
521.734314	156.300000
521.827942	156.140000
521.921692	156.320000
522.015320	156.180000
522.109009	155.760000
522.202698	155.520000
522.296326	155.260000
522.390015	155.460000
522.483704	155.980000
522.577393	155.800000
522.671021	156.040000
522.764709	155.860000
522.858337	155.940000
522.952026	155.720000
523.045654	156.680000
523.139404	157.080000
523.233032	157.440000
523.326721	157.320000
523.420349	157.380000
523.514038	156.680000
523.607666	156.580000
523.701355	155.860000
523.795044	155.500000
523.888733	155.580000
523.982361	155.980000
524.076050	155.780000
524.169678	156.720000
524.263367	156.420000
524.356995	155.980000
524.450684	155.960000
524.544373	155.540000
524.638062	155.140000
524.731750	155.520000
524.825378	155.520000
524.919067	155.080000
525.012695	155.140000
525.106384	154.940000
525.200012	154.980000
525.293701	155.220000
525.387329	155.740000
525.481018	156.160000
525.574646	156.760000
525.668396	156.700000
525.762024	156.880000
525.855713	157.100000
525.949341	156.580000
526.043030	156.760000
526.136658	156.740000
526.230347	156.380000
526.323975	155.700000
526.417664	155.580000
526.511292	155.280000
526.604980	155.480000
526.698608	155.500000
526.792297	156.040000
526.885925	156.740000
526.979614	156.880000
527.073303	156.680000
527.166931	156.680000
527.260620	156.400000
527.354309	156.700000
527.447998	156.480000
527.541626	156.160000
527.635315	156.440000
527.728943	157.060000
527.822632	156.820000
527.916260	156.680000
528.009949	157.260000
528.103577	156.920000
528.197266	155.920000
528.290894	156.060000
528.384583	155.960000
528.478210	155.640000
528.571899	156.160000
528.665527	156.820000
528.759216	156.620000
528.852844	156.960000
528.946533	156.880000
529.040161	156.580000
529.133850	156.220000
529.227478	156.420000
529.321167	156.700000
529.414856	157.360000
529.508484	157.740000
529.602173	157.480000
529.695801	157.360000
529.789490	156.920000
529.883057	156.500000
529.976746	156.480000
530.070374	157.120000
530.164062	156.720000
530.257690	157.360000
530.351379	157.460000
530.445007	156.960000
530.538696	156.020000
530.632324	156.660000
530.726013	156.460000
530.819641	156.220000
530.913330	156.320000
531.006958	156.720000
531.100647	156.340000
531.194275	155.980000
531.287964	156.000000
531.381592	155.900000
531.475220	155.860000
531.568848	155.840000
531.662537	155.620000
531.756226	156.120000
531.849854	156.280000
531.943542	156.900000
532.037170	156.280000
532.130859	156.680000
532.224487	156.180000
532.318176	155.800000
532.411804	155.740000
532.505432	156.520000
532.599060	156.320000
532.692749	156.160000
532.786377	156.520000
532.880066	155.720000
532.973694	155.060000
533.067383	154.960000
533.161011	155.100000
533.254639	155.160000
533.348267	155.380000
533.441956	155.840000
533.535583	155.860000
533.629272	156.160000
533.722900	155.460000
533.816589	155.440000
533.910156	155.780000
534.003845	155.540000
534.097534	155.680000
534.191162	156.680000
534.284851	156.820000
534.378479	156.220000
534.472107	156.340000
534.565735	156.000000
534.659424	155.920000
534.753052	156.280000
534.846741	156.360000
534.940369	157.100000
535.033997	157.160000
535.127625	157.180000
535.221313	157.600000
535.314941	157.400000
535.408630	156.400000
535.502197	156.660000
535.595886	156.220000
535.689514	155.660000
535.783203	156.100000
535.876831	156.980000
535.970459	156.820000
536.064087	156.580000
536.157776	156.400000
536.251404	156.120000
536.345093	155.620000
536.438721	155.840000
536.532349	156.300000
536.626038	156.280000
536.719666	156.540000
536.813293	156.460000
536.906921	156.460000
537.000610	156.600000
537.094238	156.800000
537.187866	156.920000
537.281494	156.800000
537.375183	156.480000
537.468811	156.420000
537.562439	156.600000
537.656067	156.320000
537.749756	156.420000
537.843384	157.180000
537.937012	157.180000
538.030640	156.440000
538.124329	156.260000
538.217896	157.020000
538.311584	156.620000
538.405212	156.700000
538.498901	157.300000
538.592468	158.400000
538.686157	157.640000
538.779785	156.840000
538.873413	156.760000
538.967102	156.420000
539.060730	155.520000
539.154358	155.600000
539.247986	156.320000
539.341675	156.260000
539.435242	156.340000
539.528931	156.760000
539.622559	156.380000
539.716187	156.820000
539.809814	156.880000
539.903503	156.780000
539.997070	156.440000
540.090759	156.780000
540.184387	156.060000
540.278015	156.360000
540.371643	156.920000
540.465332	156.820000
540.558899	156.520000
540.652588	156.820000
540.746216	156.260000
540.839844	156.220000
540.933472	156.400000
541.027100	156.640000
541.120728	156.600000
541.214417	156.880000
541.308044	156.940000
541.401672	156.680000
541.495300	156.480000
541.588928	156.620000
541.682617	156.460000
541.776184	156.220000
541.869873	156.640000
541.963440	156.820000
542.057129	156.400000
542.150757	156.320000
542.244385	155.840000
542.338013	155.320000
542.431641	155.140000
542.525269	155.180000
542.618958	155.680000
542.712524	156.120000
542.806213	156.380000
542.899780	156.700000
542.993469	156.280000
543.087036	155.920000
543.180725	155.420000
543.274292	155.740000
543.367981	156.000000
543.461548	156.580000
543.555237	156.440000
543.648926	156.980000
543.742493	157.440000
543.836182	157.300000
543.929749	157.020000
544.023437	157.140000
544.117004	157.220000
544.210693	156.820000
544.304260	156.700000
544.397949	156.680000
544.491516	156.980000
544.585205	156.880000
544.678772	156.180000
544.772461	156.560000
544.866028	156.840000
544.959717	156.580000
545.053284	156.260000
545.146973	156.800000
545.240540	156.880000
545.334229	157.300000
545.427795	157.500000
545.521423	158.040000
545.615051	158.060000
545.708679	158.200000
545.802307	157.600000
545.895935	157.560000
545.989624	157.840000
546.083191	157.600000
546.176880	157.360000
546.270447	157.020000
546.364136	157.600000
546.457703	157.220000
546.551331	157.140000
546.644958	156.980000
546.738586	157.940000
546.832214	157.320000
546.925842	157.240000
547.019409	157.540000
547.113098	157.280000
547.206665	156.340000
547.300354	156.380000
547.393921	156.520000
547.487549	156.780000
547.581177	156.740000
547.674805	157.160000
547.768433	156.340000
547.862061	156.300000
547.955627	155.360000
548.049316	156.140000
548.142883	156.420000
548.236572	157.400000
548.330139	157.540000
548.423767	157.900000
548.517456	157.340000
548.611023	157.420000
548.704651	156.480000
548.798279	156.280000
548.891907	156.920000
548.985474	156.900000
549.079163	156.920000
549.172729	157.140000
549.266357	156.840000
549.359985	156.520000
549.453613	156.040000
549.547180	155.460000
549.640869	156.040000
549.734436	156.000000
549.828064	156.360000
549.921631	156.580000
550.015320	156.380000
550.108887	156.900000
550.202515	157.040000
550.296143	156.500000
550.389771	156.560000
550.483337	156.940000
550.576965	156.240000
550.670593	156.760000
550.764221	156.880000
550.857849	156.760000
550.951477	156.140000
551.045105	156.000000
551.138672	155.660000
551.232300	155.280000
551.325928	155.600000
551.419556	156.320000
551.513123	156.220000
551.606750	155.880000
551.700378	155.940000
551.794006	156.000000
551.887573	155.840000
551.981201	156.380000
552.074768	156.720000
552.168457	156.800000
552.262024	157.440000
552.355652	157.340000
552.449219	157.780000
552.542847	157.500000
552.636475	157.120000
552.730103	156.160000
552.823669	155.860000
552.917297	154.940000
553.010864	155.020000
553.104553	155.580000
553.198181	155.240000
553.291748	156.140000
553.385376	156.740000
553.478943	156.640000
553.572571	156.640000
553.666199	157.460000
553.759827	156.540000
553.853394	155.640000
553.947021	155.840000
554.040588	155.760000
554.134216	155.900000
554.227783	157.160000
554.321411	157.980000
554.415039	157.420000
554.508667	157.240000
554.602234	156.940000
554.695862	156.020000
554.789429	155.600000
554.883057	155.880000
554.976624	155.780000
555.070251	155.660000
555.163818	155.500000
555.257507	155.640000
555.351074	155.820000
555.444702	156.920000
555.538330	156.640000
555.631897	157.220000
555.725525	157.160000
555.819092	157.240000
555.912720	156.260000
556.006287	156.840000
556.099915	156.620000
556.193481	156.620000
556.287109	156.600000
556.380676	156.600000
556.474304	156.380000
556.567871	156.660000
556.661499	156.320000
556.755066	156.240000
556.848694	156.280000
556.942261	155.980000
557.035889	156.140000
557.129517	156.720000
557.223145	157.320000
557.316711	157.620000
557.410339	157.940000
557.503906	157.600000
557.597473	157.700000
557.691040	157.160000
557.784668	156.860000
557.878296	156.620000
557.971863	156.780000
558.065491	156.780000
558.159058	156.520000
558.252686	157.420000
558.346252	158.460000
558.439880	157.560000
558.533447	157.020000
558.627075	157.120000
558.720642	156.340000
558.814270	155.540000
558.907837	156.080000
559.001465	156.040000
559.095032	156.660000
559.188660	157.020000
559.282227	156.460000
559.375854	156.960000
559.469360	156.940000
559.562988	157.040000
559.656555	156.840000
559.750183	157.260000
559.843750	157.020000
559.937378	157.480000
560.030945	156.720000
560.124573	0.000000
560.218140	0.000000
560.311707	0.000000
560.405334	0.000000
560.498901	0.000000
560.592529	0.000000
560.686096	0.000000
560.779724	0.000000
560.873291	0.000000
560.966858	0.000000
561.060425	0.000000
561.154053	0.000000
561.247620	0.000000
561.341248	0.000000
561.434814	0.000000
561.528381	0.000000
561.621948	0.000000
561.715576	0.000000
561.809143	0.000000
561.902771	0.000000
561.996277	0.000000
562.089905	0.000000
562.183472	0.000000
562.277100	0.000000
