Model Number: SPM-001-M   
Serial Number: 10090201
Firmware Version: 004.17.6
Exposure Time: 300000.000000us
Data Taken on: 11-02-2021 11:21:50.201
Wavelength	Amplitude
733.770752	0.000000
733.808716	0.000000
733.846619	0.000000
733.884583	0.000000
733.922546	0.000000
733.960449	0.000000
733.998413	0.000000
734.036377	0.000000
734.074219	0.000000
734.112183	0.000000
734.150085	0.000000
734.188049	0.000000
734.226013	0.000000
734.263916	0.000000
734.301819	0.000000
734.339783	0.000000
734.377686	0.000000
734.415588	0.000000
734.453552	0.000000
734.491455	0.000000
734.529419	0.000000
734.567322	0.000000
734.605225	0.000000
734.643127	0.000000
734.681091	0.000000
734.718994	0.000000
734.756897	0.000000
734.794800	0.000000
734.832703	0.000000
734.870667	0.000000
734.908508	0.000000
734.946472	0.000000
734.984375	0.000000
735.022278	0.000000
735.060181	0.000000
735.098083	0.000000
735.135986	0.000000
735.173889	0.000000
735.211792	0.000000
735.249695	0.000000
735.287598	0.000000
735.325439	0.000000
735.363403	0.000000
735.401306	0.000000
735.439148	0.000000
735.477051	0.000000
735.515015	0.000000
735.552856	0.000000
735.590759	0.000000
735.628662	0.000000
735.666504	0.000000
735.704407	0.000000
735.742310	0.000000
735.780212	0.000000
735.818115	0.000000
735.856018	0.000000
735.893860	0.000000
735.931763	0.000000
735.969604	0.000000
736.007507	0.000000
736.045410	0.000000
736.083252	0.000000
736.121094	0.000000
736.158997	0.000000
736.196838	0.000000
736.234741	0.000000
736.272644	0.000000
736.310486	0.000000
736.348389	0.000000
736.386230	0.000000
736.424072	0.000000
736.461975	0.000000
736.499878	0.000000
736.537720	0.000000
736.575562	0.000000
736.613403	0.000000
736.651306	0.000000
736.689148	0.000000
736.726990	0.000000
736.764893	0.000000
736.802734	0.000000
736.840576	0.000000
736.878418	0.000000
736.916321	0.000000
736.954102	0.000000
736.992004	0.000000
737.029846	0.000000
737.067688	0.000000
737.105530	0.000000
737.143372	0.000000
737.181213	0.000000
737.219116	0.000000
737.256897	0.000000
737.294739	0.000000
737.332642	0.000000
737.370422	0.000000
737.408325	0.000000
737.446167	0.000000
737.483948	0.000000
737.521790	0.000000
737.559692	0.000000
737.597473	0.000000
737.635315	0.000000
737.673157	0.000000
737.710999	0.000000
737.748840	0.000000
737.786621	0.000000
737.824463	0.000000
737.862305	0.000000
737.900085	0.000000
737.937927	0.000000
737.975769	0.000000
738.013550	0.000000
738.051392	0.000000
738.089233	0.000000
738.127014	0.000000
738.164856	0.000000
738.202698	0.000000
738.240479	0.000000
738.278320	0.000000
738.316162	0.000000
738.353943	0.000000
738.391785	0.000000
738.429565	0.000000
738.467407	0.000000
738.505188	0.000000
738.542969	0.000000
738.580811	0.000000
738.618652	0.000000
738.656372	0.000000
738.694214	0.000000
738.732056	0.000000
738.769836	0.000000
738.807617	0.000000
738.845459	0.000000
738.883240	0.000000
738.921021	0.000000
738.958862	0.000000
738.996582	0.000000
739.034424	0.000000
739.072205	0.000000
739.109985	0.000000
739.147827	0.000000
739.185547	0.000000
739.223389	0.000000
739.261169	0.000000
739.298889	0.000000
739.336731	0.000000
739.374512	0.000000
739.412292	0.000000
739.450073	0.000000
739.487854	0.000000
739.525635	0.000000
739.563416	0.000000
739.601135	0.000000
739.638977	0.000000
739.676758	0.000000
739.714478	0.000000
739.752258	0.000000
739.790100	0.000000
739.827820	0.000000
739.865601	0.000000
739.903381	0.000000
739.941101	0.000000
739.978882	198.000000
740.016724	196.000000
740.054443	193.000000
740.092224	193.000000
740.130005	187.000000
740.167725	192.000000
740.205505	185.000000
740.243225	200.000000
740.281006	192.000000
740.318787	191.000000
740.356506	196.000000
740.394287	198.000000
740.432068	187.000000
740.469727	192.000000
740.507507	197.000000
740.545288	197.000000
740.583008	196.000000
740.620789	193.000000
740.658569	185.000000
740.696228	196.000000
740.734009	192.000000
740.771790	187.000000
740.809509	198.000000
740.847229	191.000000
740.884949	193.000000
740.922729	188.000000
740.960449	192.000000
740.998169	193.000000
741.035950	194.000000
741.073669	195.000000
741.111389	194.000000
741.149170	203.000000
741.186890	197.000000
741.224609	194.000000
741.262329	199.000000
741.300110	202.000000
741.337769	195.000000
741.375549	190.000000
741.413208	195.000000
741.450989	192.000000
741.488708	198.000000
741.526367	190.000000
741.564148	205.000000
741.601868	197.000000
741.639526	197.000000
741.677307	193.000000
741.715027	196.000000
741.752686	188.000000
741.790466	204.000000
741.828186	195.000000
741.865845	194.000000
741.903564	187.000000
741.941345	194.000000
741.979004	186.000000
742.016724	199.000000
742.054382	196.000000
742.092102	198.000000
742.129822	189.000000
742.167480	195.000000
742.205200	188.000000
742.242920	200.000000
742.280640	197.000000
742.318359	190.000000
742.356079	191.000000
742.393738	201.000000
742.431396	192.000000
742.469116	199.000000
742.506775	186.000000
742.544495	195.000000
742.582214	203.000000
742.619873	190.000000
742.657593	195.000000
742.695251	204.000000
742.732971	196.000000
742.770630	195.000000
742.808289	195.000000
742.846008	192.000000
742.883728	196.000000
742.921326	194.000000
742.959045	197.000000
742.996765	193.000000
743.034424	194.000000
743.072083	193.000000
743.109802	193.000000
743.147400	190.000000
743.185120	196.000000
743.222839	191.000000
743.260437	200.000000
743.298157	195.000000
743.335754	190.000000
743.373474	192.000000
743.411133	191.000000
743.448792	192.000000
743.486450	195.000000
743.524170	188.000000
743.561768	194.000000
743.599487	199.000000
743.637146	201.000000
743.674744	190.000000
743.712463	193.000000
743.750122	192.000000
743.787720	195.000000
743.825439	188.000000
743.863037	195.000000
743.900696	193.000000
743.938416	220.000000
743.976013	196.000000
744.013672	203.000000
744.051331	199.000000
744.088928	201.000000
744.126587	198.000000
744.164307	198.000000
744.201904	195.000000
744.239563	197.000000
744.277222	199.000000
744.314819	195.000000
744.352478	199.000000
744.390137	198.000000
744.427734	200.000000
744.465393	190.000000
744.502991	194.000000
744.540649	197.000000
744.578308	194.000000
744.615906	188.000000
744.653564	190.000000
744.691223	195.000000
744.728821	192.000000
744.766418	193.000000
744.804077	195.000000
744.841675	194.000000
744.879333	195.000000
744.916992	188.000000
744.954529	195.000000
744.992187	197.000000
745.029785	193.000000
745.067444	191.000000
745.105042	196.000000
745.142639	193.000000
745.180298	202.000000
745.217896	191.000000
745.255493	186.000000
745.293152	196.000000
745.330750	201.000000
745.368347	197.000000
745.405945	194.000000
745.443604	196.000000
745.481140	193.000000
745.518799	196.000000
745.556396	197.000000
745.593994	197.000000
745.631592	193.000000
745.669189	191.000000
745.706787	197.000000
745.744385	193.000000
745.781982	197.000000
745.819580	194.000000
745.857178	190.000000
745.894775	195.000000
745.932373	196.000000
745.969971	197.000000
746.007568	189.000000
746.045166	199.000000
746.082764	198.000000
746.120300	200.000000
746.157898	193.000000
746.195557	193.000000
746.233093	188.000000
746.270691	196.000000
746.308228	189.000000
746.345825	200.000000
746.383423	194.000000
746.420959	193.000000
746.458557	193.000000
746.496155	194.000000
746.533691	194.000000
746.571289	186.000000
746.608887	189.000000
746.646423	194.000000
746.684021	194.000000
746.721619	191.000000
746.759155	194.000000
746.796753	191.000000
746.834351	188.000000
746.871826	191.000000
746.909424	201.000000
746.946960	194.000000
746.984558	193.000000
747.022156	191.000000
747.059631	198.000000
747.097229	197.000000
747.134827	192.000000
747.172363	195.000000
747.209900	200.000000
747.247498	191.000000
747.285034	200.000000
747.322571	197.000000
747.360168	195.000000
747.397644	189.000000
747.435242	197.000000
747.472778	196.000000
747.510315	195.000000
747.547913	190.000000
747.585388	202.000000
747.622925	189.000000
747.660522	188.000000
747.697998	192.000000
747.735596	193.000000
747.773132	189.000000
747.810669	197.000000
747.848206	191.000000
747.885742	192.000000
747.923279	189.000000
747.960815	196.000000
747.998352	193.000000
748.035889	199.000000
748.073425	191.000000
748.110901	192.000000
748.148437	193.000000
748.185974	197.000000
748.223511	202.000000
748.261047	200.000000
748.298584	191.000000
748.336060	197.000000
748.373596	197.000000
748.411133	221.000000
748.448608	194.000000
748.486145	197.000000
748.523682	198.000000
748.561218	201.000000
748.598755	196.000000
748.636292	196.000000
748.673706	193.000000
748.711243	199.000000
748.748718	197.000000
748.786255	192.000000
748.823792	196.000000
748.861267	194.000000
748.898804	202.000000
748.936340	194.000000
748.973816	191.000000
749.011292	200.000000
749.048828	199.000000
749.086304	192.000000
749.123840	209.000000
749.161316	189.000000
749.198792	205.000000
749.236328	198.000000
749.273743	197.000000
749.311279	191.000000
749.348816	195.000000
749.386230	191.000000
749.423767	190.000000
749.461304	197.000000
749.498718	197.000000
749.536255	195.000000
749.573730	203.000000
749.611206	200.000000
749.648682	197.000000
749.686218	195.000000
749.723633	200.000000
749.761169	191.000000
749.798645	193.000000
749.836060	195.000000
749.873596	191.000000
749.911011	196.000000
749.948547	198.000000
749.986023	193.000000
750.023437	192.000000
750.060913	192.000000
750.098450	190.000000
750.135864	192.000000
750.173340	197.000000
750.210815	197.000000
750.248291	193.000000
750.285767	197.000000
750.323242	199.000000
750.360657	202.000000
750.398132	191.000000
750.435608	195.000000
750.473022	194.000000
750.510498	191.000000
750.547974	189.000000
750.585449	196.000000
750.622925	185.000000
750.660339	205.000000
750.697815	193.000000
750.735291	191.000000
750.772644	195.000000
750.810120	196.000000
750.847595	197.000000
750.885010	188.000000
750.922485	197.000000
750.959961	197.000000
750.997375	197.000000
751.034851	197.000000
751.072266	195.000000
751.109680	188.000000
751.147156	197.000000
751.184570	200.000000
751.221985	193.000000
751.259460	190.000000
751.296875	195.000000
751.334290	194.000000
751.371765	198.000000
751.409180	204.000000
751.446594	200.000000
751.484070	198.000000
751.521423	199.000000
751.558899	194.000000
751.596375	202.000000
751.633728	201.000000
751.671204	200.000000
751.708618	192.000000
751.746033	198.000000
751.783447	189.000000
751.820801	193.000000
751.858276	197.000000
751.895691	194.000000
751.933105	188.000000
751.970520	195.000000
752.007935	192.000000
752.045349	195.000000
752.082764	196.000000
752.120178	195.000000
752.157532	192.000000
752.195007	192.000000
752.232422	193.000000
752.269775	198.000000
752.307190	197.000000
752.344543	192.000000
752.382019	190.000000
752.419434	193.000000
752.456787	196.000000
752.494202	201.000000
752.531616	190.000000
752.568970	190.000000
752.606384	195.000000
752.643799	195.000000
752.681152	199.000000
752.718567	200.000000
752.755981	185.000000
752.793335	193.000000
752.830750	186.000000
752.868164	202.000000
752.905518	191.000000
752.942932	199.000000
752.980225	193.000000
753.017639	196.000000
753.055054	195.000000
753.092407	201.000000
753.129822	199.000000
753.167175	200.000000
753.204529	196.000000
753.241943	191.000000
753.279358	197.000000
753.316650	193.000000
753.354065	196.000000
753.391479	200.000000
753.428772	207.000000
753.466187	197.000000
753.503479	192.000000
753.540894	193.000000
753.578308	190.000000
753.615601	191.000000
753.653015	201.000000
753.690369	192.000000
753.727722	190.000000
753.765076	187.000000
753.802490	192.000000
753.839783	185.000000
753.877136	191.000000
753.914551	203.000000
753.951843	192.000000
753.989258	200.000000
754.026611	196.000000
754.063904	195.000000
754.101257	191.000000
754.138611	186.000000
754.175964	197.000000
754.213318	206.000000
754.250610	190.000000
754.288025	191.000000
754.325378	189.000000
754.362671	200.000000
754.400024	194.000000
754.437378	205.000000
754.474670	200.000000
754.512085	193.000000
754.549438	197.000000
754.586731	194.000000
754.624084	195.000000
754.661438	191.000000
754.698730	202.000000
754.736084	196.000000
754.773376	194.000000
754.810730	197.000000
754.848083	193.000000
754.885315	204.000000
754.922668	187.000000
754.960022	193.000000
754.997314	200.000000
755.034668	196.000000
755.072021	189.000000
755.109253	194.000000
755.146606	200.000000
755.183960	195.000000
755.221252	201.000000
755.258545	200.000000
755.295898	199.000000
755.333191	199.000000
755.370544	197.000000
755.407776	195.000000
755.445129	197.000000
755.482422	198.000000
755.519714	192.000000
755.557068	194.000000
755.594360	189.000000
755.631653	201.000000
755.668945	206.000000
755.706299	197.000000
755.743530	208.000000
755.780884	204.000000
755.818176	197.000000
755.855408	202.000000
755.892761	202.000000
755.930054	197.000000
755.967346	198.000000
756.004639	202.000000
756.041870	201.000000
756.079224	204.000000
756.116516	197.000000
756.153748	198.000000
756.191040	207.000000
756.228394	195.000000
756.265625	192.000000
756.302917	198.000000
756.340210	195.000000
756.377441	195.000000
756.414795	203.000000
756.452087	193.000000
756.489319	195.000000
756.526611	197.000000
756.563843	201.000000
756.601135	202.000000
756.638428	204.000000
756.675659	197.000000
756.712952	198.000000
756.750244	198.000000
756.787476	202.000000
756.824768	201.000000
756.862061	196.000000
756.899292	246.000000
756.936584	205.000000
756.973816	203.000000
757.011047	208.000000
757.048340	197.000000
757.085632	197.000000
757.122864	211.000000
757.160156	196.000000
757.197327	200.000000
757.234619	207.000000
757.271912	195.000000
757.309082	202.000000
757.346375	199.000000
757.383667	205.000000
757.420837	199.000000
757.458130	203.000000
757.495422	198.000000
757.532593	201.000000
757.569885	199.000000
757.607117	197.000000
757.644348	202.000000
757.681580	211.000000
757.718811	191.000000
757.756042	200.000000
757.793335	199.000000
757.830505	201.000000
757.867798	202.000000
757.905029	194.000000
757.942200	206.000000
757.979492	196.000000
758.016724	197.000000
758.053894	199.000000
758.091187	216.000000
758.128418	201.000000
758.165588	201.000000
758.202820	209.000000
758.240112	199.000000
758.277283	209.000000
758.314514	205.000000
758.351685	194.000000
758.388916	209.000000
758.426147	206.000000
758.463379	210.000000
758.500610	198.000000
758.537842	206.000000
758.575012	209.000000
758.612244	199.000000
758.649475	210.000000
758.686646	198.000000
758.723877	205.000000
758.761108	210.000000
758.798279	202.000000
758.835510	205.000000
758.872742	209.000000
758.909851	205.000000
758.947083	203.000000
758.984253	205.000000
759.021484	210.000000
759.058716	209.000000
759.095886	211.000000
759.133057	208.000000
759.170288	204.000000
759.207458	201.000000
759.244690	219.000000
759.281860	213.000000
759.319031	202.000000
759.356262	199.000000
759.393433	205.000000
759.430603	201.000000
759.467773	203.000000
759.505005	212.000000
759.542175	212.000000
759.579346	203.000000
759.616516	207.000000
759.653687	208.000000
759.690918	207.000000
759.728027	206.000000
759.765259	208.000000
759.802429	210.000000
759.839539	206.000000
759.876770	208.000000
759.913940	213.000000
759.951111	210.000000
759.988281	209.000000
760.025452	204.000000
760.062561	207.000000
760.099792	216.000000
760.136963	212.000000
760.174072	205.000000
760.211243	206.000000
760.248413	210.000000
760.285583	205.000000
760.322754	218.000000
760.359863	212.000000
760.397034	211.000000
760.434204	211.000000
760.471375	211.000000
760.508545	209.000000
760.545715	213.000000
760.582825	208.000000
760.619995	213.000000
760.657166	207.000000
760.694275	219.000000
760.731445	215.000000
760.768555	211.000000
760.805664	216.000000
760.842834	211.000000
760.879944	214.000000
760.917114	213.000000
760.954285	210.000000
760.991394	210.000000
761.028564	215.000000
761.065674	215.000000
761.102783	207.000000
761.139954	219.000000
761.177124	217.000000
761.214172	215.000000
761.251343	209.000000
761.288452	214.000000
761.325562	215.000000
761.362732	214.000000
761.399841	209.000000
761.436951	217.000000
761.474121	207.000000
761.511169	218.000000
761.548340	217.000000
761.585449	217.000000
761.622559	217.000000
761.659668	216.000000
761.696838	224.000000
761.733887	213.000000
761.771057	216.000000
761.808167	215.000000
761.845276	217.000000
761.882385	227.000000
761.919434	216.000000
761.956604	226.000000
761.993713	214.000000
762.030762	228.000000
762.067871	218.000000
762.105042	217.000000
762.142090	225.000000
762.179199	214.000000
762.216309	223.000000
762.253418	230.000000
762.290527	226.000000
762.327637	222.000000
762.364685	219.000000
762.401794	217.000000
762.438904	222.000000
762.475952	215.000000
762.513062	219.000000
762.550110	217.000000
762.587219	230.000000
762.624329	227.000000
762.661377	223.000000
762.698486	219.000000
762.735596	222.000000
762.772644	216.000000
762.809753	217.000000
762.846863	217.000000
762.883911	228.000000
762.921021	226.000000
762.958069	224.000000
762.995117	229.000000
763.032227	231.000000
763.069336	216.000000
763.106323	217.000000
763.143433	218.000000
763.180481	221.000000
763.217590	223.000000
763.254639	223.000000
763.291687	224.000000
763.328735	236.000000
763.365845	227.000000
763.402893	221.000000
763.439941	227.000000
763.477051	226.000000
763.514038	225.000000
763.551147	228.000000
763.588196	228.000000
763.625244	225.000000
763.662292	237.000000
763.699402	231.000000
763.736389	227.000000
763.773499	233.000000
763.810486	233.000000
763.847534	229.000000
763.884644	228.000000
763.921631	227.000000
763.958679	238.000000
763.995728	229.000000
764.032776	237.000000
764.069824	219.000000
764.106873	235.000000
764.143860	234.000000
764.180969	229.000000
764.218018	232.000000
764.255005	227.000000
764.292053	231.000000
764.329102	238.000000
764.366089	238.000000
764.403137	237.000000
764.440125	227.000000
764.477173	232.000000
764.514221	234.000000
764.551208	237.000000
764.588257	235.000000
764.625305	244.000000
764.662292	245.000000
764.699341	247.000000
764.736389	237.000000
764.773376	254.000000
764.810425	242.000000
764.847473	245.000000
764.884399	238.000000
764.921448	249.000000
764.958435	248.000000
764.995483	244.000000
765.032532	252.000000
765.069458	245.000000
765.106506	249.000000
765.143555	247.000000
765.180481	250.000000
765.217529	254.000000
765.254578	246.000000
765.291504	244.000000
765.328552	248.000000
765.365540	242.000000
765.402527	260.000000
765.439575	245.000000
765.476501	245.000000
765.513550	244.000000
765.550537	247.000000
765.587463	252.000000
765.624512	251.000000
765.661499	244.000000
765.698486	255.000000
765.735474	244.000000
765.772461	248.000000
765.809448	255.000000
765.846436	257.000000
765.883423	258.000000
765.920410	251.000000
765.957397	243.000000
765.994385	256.000000
766.031311	263.000000
766.068359	259.000000
766.105286	253.000000
766.142273	266.000000
766.179260	257.000000
766.216187	252.000000
766.253174	250.000000
766.290161	252.000000
766.327148	262.000000
766.364136	263.000000
766.401123	268.000000
766.438049	256.000000
766.475037	266.000000
766.512024	264.000000
766.548950	273.000000
766.585937	265.000000
766.622864	265.000000
766.659790	263.000000
766.696777	256.000000
766.733704	272.000000
766.770691	270.000000
766.807678	268.000000
766.844604	269.000000
766.881531	267.000000
766.918518	271.000000
766.955444	267.000000
766.992432	264.000000
767.029358	271.000000
767.066284	272.000000
767.103271	263.000000
767.140198	301.000000
767.177124	276.000000
767.214050	272.000000
767.251038	272.000000
767.287964	270.000000
767.324890	266.000000
767.361816	278.000000
767.398743	272.000000
767.435730	272.000000
767.472595	274.000000
767.509583	277.000000
767.546509	267.000000
767.583374	272.000000
767.620361	266.000000
767.657288	273.000000
767.694214	281.000000
767.731140	272.000000
767.768066	273.000000
767.804993	278.000000
767.841919	274.000000
767.878845	276.000000
767.915710	287.000000
767.952698	279.000000
767.989563	283.000000
768.026489	279.000000
768.063416	277.000000
768.100281	273.000000
768.137207	285.000000
768.174133	280.000000
768.211060	283.000000
768.247986	272.000000
768.284912	279.000000
768.321777	280.000000
768.358704	280.000000
768.395630	280.000000
768.432495	277.000000
768.469421	284.000000
768.506348	290.000000
768.543152	285.000000
768.580078	289.000000
768.616943	287.000000
768.653870	286.000000
768.690796	290.000000
768.727661	287.000000
768.764587	293.000000
768.801453	283.000000
768.838318	290.000000
768.875244	289.000000
768.912109	295.000000
768.948975	285.000000
768.985901	290.000000
769.022766	289.000000
769.059631	291.000000
769.096558	289.000000
769.133362	290.000000
769.170288	291.000000
769.207214	294.000000
769.244019	294.000000
769.280945	295.000000
769.317810	293.000000
769.354675	299.000000
769.391541	308.000000
769.428406	299.000000
769.465271	307.000000
769.502136	299.000000
769.539062	303.000000
769.575867	302.000000
769.612732	309.000000
769.649597	308.000000
769.686462	307.000000
769.723328	307.000000
769.760193	297.000000
769.797058	308.000000
769.833923	314.000000
769.870728	314.000000
769.907593	312.000000
769.944519	314.000000
769.981323	312.000000
770.018188	319.000000
770.055054	310.000000
770.091858	309.000000
770.128723	324.000000
770.165588	322.000000
770.202393	310.000000
770.239258	321.000000
770.276062	320.000000
770.312927	322.000000
770.349792	326.000000
770.386597	325.000000
770.423462	336.000000
770.460327	336.000000
770.497131	324.000000
770.533997	325.000000
770.570862	339.000000
770.607605	333.000000
770.644470	334.000000
770.681335	338.000000
770.718140	330.000000
770.754944	334.000000
770.791809	333.000000
770.828613	331.000000
770.865479	330.000000
770.902222	344.000000
770.939087	340.000000
770.975952	332.000000
771.012695	326.000000
771.049561	343.000000
771.086365	340.000000
771.123169	332.000000
771.159973	339.000000
771.196838	340.000000
771.233582	344.000000
771.270447	345.000000
771.307251	352.000000
771.344055	344.000000
771.380859	348.000000
771.417664	342.000000
771.454468	353.000000
771.491272	344.000000
771.528076	346.000000
771.564880	343.000000
771.601685	355.000000
771.638428	342.000000
771.675293	350.000000
771.712097	347.000000
771.748840	357.000000
771.785645	341.000000
771.822449	350.000000
771.859253	350.000000
771.896057	362.000000
771.932861	361.000000
771.969604	366.000000
772.006409	351.000000
772.043213	365.000000
772.079956	364.000000
772.116760	361.000000
772.153503	359.000000
772.190308	364.000000
772.227112	361.000000
772.263855	359.000000
772.300659	361.000000
772.337463	366.000000
772.374207	359.000000
772.411011	361.000000
772.447754	362.000000
772.484497	370.000000
772.521301	365.000000
772.558105	363.000000
772.594849	363.000000
772.631592	367.000000
772.668396	371.000000
772.705139	369.000000
772.741882	370.000000
772.778625	375.000000
772.815430	381.000000
772.852173	380.000000
772.888916	385.000000
772.925720	385.000000
772.962463	388.000000
772.999207	378.000000
773.035950	385.000000
773.072754	388.000000
773.109436	382.000000
773.146240	377.000000
773.182922	387.000000
773.219727	382.000000
773.256470	389.000000
773.293152	377.000000
773.329956	389.000000
773.366699	391.000000
773.403381	386.000000
773.440186	384.000000
773.476929	382.000000
773.513611	383.000000
773.550354	382.000000
773.587158	391.000000
773.623840	384.000000
773.660583	390.000000
773.697327	397.000000
773.734009	390.000000
773.770813	388.000000
773.807495	392.000000
773.844238	392.000000
773.880981	401.000000
773.917664	397.000000
773.954407	402.000000
773.991150	391.000000
774.027832	401.000000
774.064575	394.000000
774.101318	404.000000
774.138000	394.000000
774.174744	393.000000
774.211487	392.000000
774.248108	388.000000
774.284851	396.000000
774.321594	408.000000
774.358276	402.000000
774.395020	410.000000
774.431702	405.000000
774.468384	401.000000
774.505127	390.000000
774.541809	409.000000
774.578491	403.000000
774.615234	410.000000
774.651917	399.000000
774.688599	405.000000
774.725342	414.000000
774.762024	411.000000
774.798706	413.000000
774.835449	412.000000
774.872070	419.000000
774.908813	411.000000
774.945496	421.000000
774.982178	427.000000
775.018860	420.000000
775.055542	429.000000
775.092224	425.000000
775.128967	427.000000
775.165588	426.000000
775.202271	427.000000
775.239014	434.000000
775.275635	422.000000
775.312317	419.000000
775.349060	427.000000
775.385681	426.000000
775.422363	428.000000
775.459045	432.000000
775.495667	425.000000
775.532410	437.000000
775.569092	427.000000
775.605713	437.000000
775.642395	442.000000
775.679016	444.000000
775.715698	436.000000
775.752380	431.000000
775.789001	433.000000
775.825684	441.000000
775.862366	441.000000
775.898987	455.000000
775.935669	442.000000
775.972351	457.000000
776.008972	447.000000
776.045654	448.000000
776.082336	446.000000
776.118958	452.000000
776.155640	457.000000
776.192322	466.000000
776.228882	462.000000
776.265564	466.000000
776.302185	457.000000
776.338867	465.000000
776.375488	461.000000
776.412109	465.000000
776.448792	459.000000
776.485413	476.000000
776.522034	459.000000
776.558716	461.000000
776.595337	465.000000
776.631958	470.000000
776.668579	476.000000
776.705261	475.000000
776.741882	471.000000
776.778503	473.000000
776.815186	485.000000
776.851746	478.000000
776.888367	476.000000
776.924988	480.000000
776.961609	476.000000
776.998291	468.000000
777.034851	475.000000
777.071472	480.000000
777.108154	475.000000
777.144714	493.000000
777.181335	482.000000
777.218018	474.000000
777.254578	491.000000
777.291199	492.000000
777.327759	495.000000
777.364380	503.000000
777.401062	506.000000
777.437622	509.000000
777.474243	501.000000
777.510864	509.000000
777.547424	514.000000
777.584045	505.000000
777.620667	509.000000
777.657227	505.000000
777.693848	498.000000
777.730469	523.000000
777.767029	514.000000
777.803650	518.000000
777.840271	505.000000
777.876831	507.000000
777.913452	517.000000
777.950012	490.000000
777.986633	505.000000
778.023193	496.000000
778.059753	499.000000
778.096375	508.000000
778.132996	507.000000
778.169556	502.000000
778.206116	512.000000
778.242737	512.000000
778.279297	514.000000
778.315857	501.000000
778.352478	505.000000
778.389038	523.000000
778.425598	511.000000
778.462219	534.000000
778.498718	533.000000
778.535339	536.000000
778.571838	534.000000
778.608459	531.000000
778.645020	529.000000
778.681580	538.000000
778.718140	527.000000
778.754761	524.000000
778.791260	529.000000
778.827881	547.000000
778.864441	535.000000
778.900940	546.000000
778.937561	527.000000
778.974121	521.000000
779.010620	530.000000
779.047241	534.000000
779.083801	533.000000
779.120300	535.000000
779.156860	544.000000
779.193359	544.000000
779.229980	547.000000
779.266541	556.000000
779.303040	543.000000
779.339600	534.000000
779.376160	533.000000
779.412659	536.000000
779.449219	534.000000
779.485779	541.000000
779.522278	540.000000
779.558838	546.000000
779.595398	554.000000
779.631897	539.000000
779.668457	535.000000
779.705017	550.000000
779.741516	539.000000
779.778076	536.000000
779.814575	535.000000
779.851074	530.000000
779.887634	538.000000
779.924133	551.000000
779.960693	539.000000
779.997253	535.000000
780.033691	548.000000
780.070251	537.000000
780.106812	550.000000
780.143250	546.000000
780.179810	555.000000
780.216370	554.000000
780.252808	556.000000
780.289368	559.000000
780.325867	570.000000
780.362366	551.000000
780.398865	569.000000
780.435364	557.000000
780.471863	575.000000
780.508423	555.000000
780.544861	560.000000
780.581421	557.000000
780.617920	549.000000
780.654419	558.000000
780.690918	564.000000
780.727417	558.000000
780.763916	557.000000
780.800415	553.000000
780.836914	554.000000
780.873352	562.000000
780.909912	563.000000
780.946411	567.000000
780.982849	568.000000
781.019348	578.000000
781.055786	574.000000
781.092346	574.000000
781.128845	583.000000
781.165283	581.000000
781.201782	592.000000
781.238281	588.000000
781.274719	577.000000
781.311218	577.000000
781.347717	588.000000
781.384155	580.000000
781.420654	585.000000
781.457092	591.000000
781.493591	575.000000
781.530090	570.000000
781.566528	587.000000
781.602966	589.000000
781.639465	581.000000
781.675903	585.000000
781.712402	579.000000
781.748901	584.000000
781.785278	592.000000
781.821777	593.000000
781.858276	587.000000
781.894714	619.000000
781.931152	591.000000
781.967651	601.000000
782.004089	583.000000
782.040527	594.000000
782.076965	600.000000
782.113403	603.000000
782.149902	613.000000
782.186340	610.000000
782.222778	622.000000
782.259277	611.000000
782.295654	607.000000
782.332092	619.000000
782.368591	616.000000
782.404968	621.000000
782.441467	617.000000
782.477905	611.000000
782.514282	624.000000
782.550781	633.000000
782.587219	627.000000
782.623596	628.000000
782.660095	632.000000
782.696472	641.000000
782.732910	640.000000
782.769348	632.000000
782.805786	652.000000
782.842224	650.000000
782.878662	650.000000
782.915039	654.000000
782.951477	650.000000
782.987915	647.000000
783.024292	651.000000
783.060730	648.000000
783.097168	637.000000
783.133545	627.000000
783.169983	633.000000
783.206421	627.000000
783.242798	626.000000
783.279236	612.000000
783.315613	629.000000
783.352051	615.000000
783.388489	618.000000
783.424866	605.000000
783.461304	617.000000
783.497681	618.000000
783.534058	613.000000
783.570496	614.000000
783.606934	612.000000
783.643250	616.000000
783.679687	612.000000
783.716125	600.000000
783.752441	600.000000
783.788879	610.000000
783.825317	608.000000
783.861633	592.000000
783.898071	592.000000
783.934448	581.000000
783.970825	571.000000
784.007263	554.000000
784.043579	546.000000
784.080017	543.000000
784.116394	530.000000
784.152710	516.000000
784.189148	510.000000
784.225525	496.000000
784.261902	490.000000
784.298279	499.000000
784.334656	497.000000
784.371033	499.000000
784.407410	495.000000
784.443787	496.000000
784.480164	489.000000
784.516541	496.000000
784.552856	508.000000
784.589233	513.000000
784.625610	518.000000
784.661987	541.000000
784.698364	537.000000
784.734741	550.000000
784.771057	560.000000
784.807434	584.000000
784.843811	593.000000
784.880127	602.000000
784.916504	621.000000
784.952881	626.000000
784.989197	630.000000
785.025574	644.000000
785.061951	656.000000
785.098267	680.000000
785.134644	670.000000
785.170959	664.000000
785.207275	675.000000
785.243652	680.000000
785.279968	684.000000
785.316345	684.000000
785.352722	675.000000
785.388977	661.000000
785.425354	657.000000
785.461731	649.000000
785.498047	640.000000
785.534363	647.000000
785.570679	644.000000
785.606995	637.000000
785.643372	623.000000
785.679687	633.000000
785.716003	642.000000
785.752380	640.000000
785.788635	651.000000
785.825012	657.000000
785.861328	659.000000
785.897644	643.000000
785.933960	670.000000
785.970337	676.000000
786.006592	701.000000
786.042908	699.000000
786.079285	694.000000
786.115540	698.000000
786.151855	703.000000
786.188171	697.000000
786.224487	709.000000
786.260803	699.000000
786.297119	697.000000
786.333435	701.000000
786.369751	693.000000
786.406006	683.000000
786.442322	680.000000
786.478638	669.000000
786.514954	673.000000
786.551270	674.000000
786.587585	673.000000
786.623840	664.000000
786.660156	661.000000
786.696472	657.000000
786.732727	669.000000
786.769043	664.000000
786.805298	651.000000
786.841614	657.000000
786.877930	662.000000
786.914124	656.000000
786.950439	683.000000
786.986755	688.000000
787.023010	698.000000
787.059326	694.000000
787.095642	686.000000
787.131836	702.000000
787.168152	696.000000
787.204468	726.000000
787.240723	717.000000
787.276978	722.000000
787.313293	717.000000
787.349548	713.000000
787.385803	710.000000
787.422058	711.000000
787.458313	725.000000
787.494629	709.000000
787.530823	702.000000
787.567139	686.000000
787.603455	684.000000
787.639648	678.000000
787.675903	701.000000
787.712219	698.000000
787.748413	691.000000
787.784729	690.000000
787.820984	688.000000
787.857178	689.000000
787.893494	676.000000
787.929749	676.000000
787.965942	689.000000
788.002258	696.000000
788.038452	689.000000
788.074707	693.000000
788.110962	703.000000
788.147217	701.000000
788.183472	727.000000
788.219727	713.000000
788.255920	711.000000
788.292175	713.000000
788.328430	725.000000
788.364624	711.000000
788.400879	724.000000
788.437134	733.000000
788.473328	728.000000
788.509583	729.000000
788.545837	722.000000
788.582031	715.000000
788.618286	731.000000
788.654480	728.000000
788.690735	732.000000
788.726990	743.000000
788.763184	745.000000
788.799377	739.000000
788.835632	747.000000
788.871826	757.000000
788.908081	746.000000
788.944336	733.000000
788.980469	733.000000
789.016724	727.000000
789.052979	731.000000
789.089111	719.000000
789.125366	731.000000
789.161621	711.000000
789.197754	732.000000
789.234009	708.000000
789.270142	723.000000
789.306396	716.000000
789.342590	713.000000
789.378784	707.000000
789.414978	703.000000
789.451233	721.000000
789.487366	727.000000
789.523621	711.000000
789.559814	712.000000
789.595947	713.000000
789.632202	732.000000
789.668335	739.000000
789.704529	747.000000
789.740784	765.000000
789.776917	751.000000
789.813110	745.000000
789.849304	760.000000
789.885498	758.000000
789.921692	773.000000
789.957886	768.000000
789.994019	760.000000
790.030212	756.000000
790.066406	760.000000
790.102539	756.000000
790.138733	783.000000
790.174927	754.000000
790.211060	759.000000
790.247253	755.000000
790.283386	739.000000
790.319580	753.000000
790.355774	744.000000
790.391907	749.000000
790.428101	763.000000
790.464294	759.000000
790.500427	769.000000
790.536621	735.000000
790.572754	732.000000
790.608887	748.000000
790.645081	743.000000
790.681274	750.000000
790.717346	736.000000
790.753540	717.000000
790.789734	718.000000
790.825867	726.000000
790.862000	722.000000
790.898132	735.000000
790.934265	718.000000
790.970459	714.000000
791.006592	716.000000
791.042725	743.000000
791.078918	730.000000
791.114990	732.000000
791.151184	737.000000
791.187317	735.000000
791.223389	732.000000
791.259583	730.000000
791.295715	722.000000
791.331848	735.000000
791.367981	753.000000
791.404114	730.000000
791.440247	735.000000
791.476379	736.000000
791.512451	711.000000
791.548584	724.000000
791.584778	731.000000
791.620850	744.000000
791.656982	728.000000
791.693115	731.000000
791.729187	741.000000
791.765381	734.000000
791.801514	750.000000
791.837585	744.000000
791.873718	741.000000
791.909851	734.000000
791.945923	738.000000
791.982056	721.000000
792.018188	710.000000
792.054260	726.000000
792.090393	727.000000
792.126465	723.000000
792.162598	707.000000
792.198669	701.000000
792.234741	710.000000
792.270874	704.000000
792.307007	710.000000
792.343079	701.000000
792.379150	716.000000
792.415283	689.000000
792.451355	692.000000
792.487488	669.000000
792.523560	690.000000
792.559631	697.000000
792.595764	685.000000
792.631836	675.000000
792.667908	660.000000
792.703979	674.000000
792.740051	731.000000
792.776184	796.000000
792.812256	854.000000
792.848328	870.000000
792.884399	890.000000
792.920471	872.000000
792.956543	867.000000
792.992615	876.000000
793.028748	885.000000
793.064758	889.000000
793.100830	893.000000
793.136963	905.000000
793.172974	899.000000
793.209045	894.000000
793.245178	913.000000
793.281189	923.000000
793.317261	923.000000
793.353271	896.000000
793.389404	914.000000
793.425476	904.000000
793.461487	885.000000
793.497559	897.000000
793.533630	908.000000
793.569641	904.000000
793.605713	911.000000
793.641785	905.000000
793.677795	902.000000
793.713867	895.000000
793.749878	905.000000
793.785950	918.000000
793.822021	929.000000
793.858032	901.000000
793.894104	912.000000
793.930176	890.000000
793.966187	906.000000
794.002258	897.000000
794.038269	904.000000
794.074280	915.000000
794.110352	923.000000
794.146423	889.000000
794.182373	892.000000
794.218445	871.000000
794.254517	877.000000
794.290466	881.000000
794.326538	876.000000
794.362549	885.000000
794.398560	892.000000
794.434631	873.000000
794.470581	873.000000
794.506653	867.000000
794.542664	881.000000
794.578674	887.000000
794.614685	871.000000
794.650757	850.000000
794.686707	862.000000
794.722778	866.000000
794.758789	887.000000
794.794739	910.000000
794.830811	918.000000
794.866821	911.000000
794.902771	927.000000
794.938843	918.000000
794.974792	903.000000
795.010803	909.000000
795.046814	911.000000
795.082825	913.000000
795.118835	913.000000
795.154846	890.000000
795.190796	889.000000
795.226807	884.000000
795.262817	895.000000
795.298767	883.000000
795.334778	889.000000
795.370850	886.000000
795.406799	866.000000
795.442810	868.000000
795.478821	872.000000
795.514709	861.000000
795.550720	899.000000
795.586670	888.000000
795.622681	877.000000
795.658691	879.000000
795.694641	883.000000
795.730652	882.000000
795.766663	881.000000
795.802551	881.000000
795.838562	894.000000
795.874573	889.000000
795.910522	887.000000
795.946472	880.000000
795.982483	886.000000
796.018433	907.000000
796.054382	911.000000
796.090393	905.000000
796.126282	874.000000
796.162292	885.000000
796.198242	876.000000
796.234192	873.000000
796.270203	868.000000
796.306091	870.000000
796.342041	890.000000
796.378052	875.000000
796.413940	879.000000
796.449951	900.000000
796.485901	891.000000
796.521790	895.000000
796.557800	904.000000
796.593689	893.000000
796.629639	884.000000
796.665649	892.000000
796.701599	890.000000
796.737488	903.000000
796.773437	899.000000
796.809387	896.000000
796.845337	898.000000
796.881287	877.000000
796.917175	871.000000
796.953125	877.000000
796.989075	894.000000
797.024963	886.000000
797.060913	883.000000
797.096863	873.000000
797.132751	871.000000
797.168701	863.000000
797.204590	885.000000
797.240540	874.000000
797.276489	882.000000
797.312439	873.000000
797.348328	852.000000
797.384277	849.000000
797.420166	858.000000
797.456055	861.000000
797.492004	853.000000
797.527893	852.000000
797.563843	851.000000
797.599731	851.000000
797.635620	836.000000
797.671570	843.000000
797.707520	858.000000
797.743347	859.000000
797.779297	853.000000
797.815125	838.000000
797.851074	829.000000
797.887024	822.000000
797.922913	830.000000
797.958801	849.000000
797.994690	829.000000
798.030579	838.000000
798.066467	833.000000
798.102356	813.000000
798.138245	819.000000
798.174133	824.000000
798.210083	830.000000
798.245911	836.000000
798.281799	831.000000
798.317749	808.000000
798.353577	812.000000
798.389465	807.000000
798.425293	818.000000
798.461243	815.000000
798.497131	815.000000
798.532959	817.000000
798.568848	821.000000
798.604736	791.000000
798.640564	795.000000
798.676453	802.000000
798.712402	792.000000
798.748230	805.000000
798.784119	801.000000
798.820007	783.000000
798.855835	778.000000
798.891724	791.000000
798.927551	784.000000
798.963379	795.000000
798.999268	792.000000
799.035095	789.000000
799.070984	764.000000
799.106873	763.000000
799.142700	778.000000
799.178528	776.000000
799.214417	778.000000
799.250244	779.000000
799.286133	765.000000
799.321960	758.000000
799.357788	777.000000
799.393677	767.000000
799.429504	769.000000
799.465332	779.000000
799.501221	765.000000
799.537048	771.000000
799.572876	769.000000
799.608704	773.000000
799.644531	782.000000
799.680359	785.000000
799.716248	789.000000
799.752014	783.000000
799.787903	781.000000
799.823730	772.000000
799.859558	771.000000
799.895386	767.000000
799.931213	771.000000
799.967041	761.000000
800.002869	752.000000
800.038696	772.000000
800.074463	756.000000
800.110352	776.000000
800.146179	766.000000
800.181946	762.000000
800.217773	761.000000
800.253540	745.000000
800.289429	757.000000
800.325256	755.000000
800.361023	742.000000
800.396851	755.000000
800.432678	749.000000
800.468445	723.000000
800.504272	749.000000
800.540100	732.000000
800.575867	735.000000
800.611694	741.000000
800.647461	746.000000
800.683289	741.000000
800.719116	743.000000
800.754883	739.000000
800.790649	739.000000
800.826477	720.000000
800.862244	737.000000
800.898071	718.000000
800.933838	717.000000
800.969604	717.000000
801.005432	717.000000
801.041199	711.000000
801.076965	714.000000
801.112793	710.000000
801.148560	697.000000
801.184326	704.000000
801.220154	702.000000
801.255859	690.000000
801.291687	692.000000
801.327454	696.000000
801.363281	697.000000
801.398987	693.000000
801.434814	685.000000
801.470520	697.000000
801.506287	683.000000
801.542114	677.000000
801.577820	685.000000
801.613647	690.000000
801.649414	679.000000
801.685120	687.000000
801.720886	668.000000
801.756714	674.000000
801.792419	660.000000
801.828186	671.000000
801.863892	669.000000
801.899719	662.000000
801.935486	658.000000
801.971252	661.000000
802.006958	652.000000
802.042725	663.000000
802.078430	661.000000
802.114197	657.000000
802.149963	666.000000
802.185669	659.000000
802.221436	665.000000
802.257202	665.000000
802.292908	661.000000
802.328674	669.000000
802.364441	671.000000
802.400146	656.000000
802.435913	656.000000
802.471558	661.000000
802.507324	650.000000
802.543091	648.000000
802.578796	666.000000
802.614502	664.000000
802.650269	668.000000
802.685974	644.000000
802.721741	650.000000
802.757446	667.000000
802.793152	673.000000
802.828918	667.000000
802.864624	659.000000
802.900330	643.000000
802.936035	650.000000
802.971802	658.000000
803.007446	659.000000
803.043213	631.000000
803.078857	649.000000
803.114624	639.000000
803.150330	636.000000
803.185974	630.000000
803.221741	651.000000
803.257446	650.000000
803.293152	648.000000
803.328857	637.000000
803.364563	624.000000
803.400208	627.000000
803.435974	630.000000
803.471680	621.000000
803.507324	629.000000
803.543030	635.000000
803.578735	621.000000
803.614441	617.000000
803.650146	618.000000
803.685791	616.000000
803.721497	615.000000
803.757202	602.000000
803.792847	599.000000
803.828552	604.000000
803.864258	605.000000
803.899902	595.000000
803.935608	597.000000
803.971313	601.000000
804.006958	586.000000
804.042664	596.000000
804.078308	597.000000
804.113953	592.000000
804.149658	598.000000
804.185364	579.000000
804.221008	598.000000
804.256714	587.000000
804.292297	589.000000
804.328003	585.000000
804.363708	574.000000
804.399292	574.000000
804.434998	574.000000
804.470703	570.000000
804.506287	578.000000
804.541992	567.000000
804.577637	565.000000
804.613281	570.000000
804.648926	557.000000
804.684570	565.000000
804.720215	566.000000
804.755920	568.000000
804.791565	556.000000
804.827209	568.000000
804.862854	558.000000
804.898437	553.000000
804.934143	563.000000
804.969788	556.000000
805.005371	561.000000
805.041077	551.000000
805.076721	542.000000
805.112305	543.000000
805.147949	545.000000
805.183655	546.000000
805.219238	552.000000
805.254883	544.000000
805.290466	546.000000
805.326111	538.000000
805.361755	535.000000
805.397400	546.000000
805.432983	544.000000
805.468628	544.000000
805.504211	553.000000
805.539856	548.000000
805.575500	544.000000
805.611084	536.000000
805.646729	529.000000
805.682373	538.000000
805.717957	541.000000
805.753601	534.000000
805.789246	519.000000
805.824768	536.000000
805.860413	532.000000
805.895996	529.000000
805.931641	529.000000
805.967224	532.000000
806.002869	530.000000
806.038452	533.000000
806.074036	525.000000
806.109619	517.000000
806.145264	511.000000
806.180847	513.000000
806.216431	519.000000
806.252014	513.000000
806.287659	514.000000
806.323181	514.000000
806.358826	514.000000
806.394409	500.000000
806.429993	505.000000
806.465576	508.000000
806.501160	503.000000
806.536743	498.000000
806.572327	504.000000
806.607910	495.000000
806.643494	509.000000
806.679077	503.000000
806.714661	499.000000
806.750244	497.000000
806.785828	481.000000
806.821350	491.000000
806.856934	491.000000
806.892517	489.000000
806.928101	481.000000
806.963684	484.000000
806.999268	490.000000
807.034790	470.000000
807.070374	487.000000
807.105896	464.000000
807.141479	458.000000
807.177063	471.000000
807.212585	461.000000
807.248169	471.000000
807.283752	464.000000
807.319275	460.000000
807.354858	460.000000
807.390381	467.000000
807.425903	454.000000
807.461487	461.000000
807.497070	449.000000
807.532593	446.000000
807.568115	454.000000
807.603699	442.000000
807.639221	447.000000
807.674744	445.000000
807.710266	443.000000
807.745850	445.000000
807.781372	439.000000
807.816895	437.000000
807.852417	441.000000
807.888000	443.000000
807.923523	442.000000
807.959045	438.000000
807.994629	435.000000
808.030090	433.000000
808.065613	439.000000
808.101135	444.000000
808.136658	443.000000
808.172241	434.000000
808.207764	436.000000
808.243225	414.000000
808.278809	424.000000
808.314270	435.000000
808.349792	423.000000
808.385315	429.000000
808.420837	427.000000
808.456360	430.000000
808.491882	431.000000
808.527344	419.000000
808.562866	434.000000
808.598389	418.000000
808.633850	427.000000
808.669434	416.000000
808.704895	421.000000
808.740417	419.000000
808.775940	420.000000
808.811462	416.000000
808.846924	411.000000
808.882385	409.000000
808.917847	412.000000
808.953369	407.000000
808.988892	407.000000
809.024353	402.000000
809.059875	420.000000
809.095398	407.000000
809.130798	401.000000
809.166321	395.000000
809.201843	409.000000
809.237305	397.000000
809.272766	406.000000
809.308228	392.000000
809.343750	399.000000
809.379211	399.000000
809.414734	389.000000
809.450134	400.000000
809.485657	384.000000
809.521118	396.000000
809.556580	391.000000
809.592102	394.000000
809.627502	389.000000
809.663025	390.000000
809.698486	381.000000
809.733887	380.000000
809.769409	378.000000
809.804871	369.000000
809.840271	375.000000
809.875793	379.000000
809.911194	378.000000
809.946655	379.000000
809.982178	373.000000
810.017639	373.000000
810.053040	368.000000
810.088501	369.000000
810.123901	364.000000
810.159424	365.000000
810.194885	358.000000
810.230286	373.000000
810.265747	354.000000
810.301208	348.000000
810.336609	357.000000
810.372070	351.000000
810.407532	343.000000
810.442932	349.000000
810.478394	358.000000
810.513794	355.000000
810.549255	353.000000
810.584717	353.000000
810.620117	335.000000
810.655518	348.000000
810.690979	340.000000
810.726379	346.000000
810.761841	336.000000
810.797302	335.000000
810.832642	336.000000
810.868103	349.000000
810.903564	336.000000
810.938904	337.000000
810.974365	328.000000
811.009827	337.000000
811.045166	330.000000
811.080627	321.000000
811.115967	330.000000
811.151428	332.000000
811.186829	328.000000
811.222229	325.000000
811.257629	319.000000
811.293091	318.000000
811.328430	338.000000
811.363892	325.000000
811.399292	327.000000
811.434631	320.000000
811.470093	326.000000
811.505493	311.000000
811.540833	314.000000
811.576294	320.000000
811.611694	317.000000
811.647034	313.000000
811.682434	315.000000
811.717773	317.000000
811.753235	321.000000
811.788635	301.000000
811.823975	313.000000
811.859375	315.000000
811.894775	316.000000
811.930115	310.000000
811.965515	306.000000
812.000916	308.000000
812.036255	307.000000
812.071655	304.000000
812.106995	303.000000
812.142395	297.000000
812.177795	309.000000
812.213196	298.000000
812.248474	308.000000
812.283875	300.000000
812.319214	301.000000
812.354614	299.000000
812.390015	299.000000
812.425293	294.000000
812.460693	290.000000
812.496094	296.000000
812.531433	285.000000
812.566772	294.000000
812.602173	291.000000
812.637451	287.000000
812.672852	281.000000
812.708191	292.000000
812.743530	287.000000
812.778931	280.000000
812.814270	274.000000
812.849609	289.000000
812.884949	283.000000
812.920227	279.000000
812.955627	284.000000
812.990967	280.000000
813.026306	270.000000
813.061646	270.000000
813.096985	267.000000
813.132324	267.000000
813.167664	267.000000
813.203003	275.000000
813.238281	260.000000
813.273682	259.000000
813.308960	260.000000
813.344299	263.000000
813.379639	264.000000
813.414978	258.000000
813.450256	259.000000
813.485596	260.000000
813.520874	253.000000
813.556213	255.000000
813.591614	268.000000
813.626831	252.000000
813.662170	254.000000
813.697510	270.000000
813.732788	252.000000
813.768127	260.000000
813.803467	256.000000
813.838745	257.000000
813.874084	258.000000
813.909363	258.000000
813.944641	257.000000
813.979980	245.000000
814.015320	250.000000
814.050598	251.000000
814.085876	256.000000
814.121155	245.000000
814.156494	245.000000
814.191772	250.000000
814.227051	244.000000
814.262390	242.000000
814.297668	249.000000
814.332947	245.000000
814.368225	249.000000
814.403564	245.000000
814.438782	245.000000
814.474121	241.000000
814.509338	236.000000
814.544617	245.000000
814.579956	236.000000
814.615173	248.000000
814.650513	243.000000
814.685791	234.000000
814.721008	243.000000
814.756348	238.000000
814.791626	239.000000
814.826843	241.000000
814.862122	239.000000
814.897400	238.000000
814.932678	241.000000
814.967957	237.000000
815.003235	242.000000
815.038452	233.000000
815.073730	233.000000
815.108948	237.000000
815.144226	239.000000
815.179504	239.000000
815.214722	225.000000
815.250000	229.000000
815.285278	237.000000
815.320496	229.000000
815.355774	233.000000
815.391052	228.000000
815.426270	234.000000
815.461487	230.000000
815.496765	226.000000
815.531982	226.000000
815.567261	229.000000
815.602539	234.000000
815.637695	226.000000
815.672974	234.000000
815.708191	229.000000
815.743408	241.000000
815.778687	222.000000
815.813904	231.000000
815.849121	220.000000
815.884399	223.000000
815.919556	222.000000
815.954834	228.000000
815.990051	220.000000
816.025269	233.000000
816.060486	221.000000
816.095703	227.000000
816.130920	224.000000
816.166199	224.000000
816.201416	227.000000
816.236572	229.000000
816.271851	224.000000
816.307007	231.000000
816.342224	216.000000
816.377441	223.000000
816.412659	216.000000
816.447876	222.000000
816.483093	217.000000
816.518250	222.000000
816.553467	221.000000
816.588745	228.000000
816.623901	220.000000
816.659119	215.000000
816.694275	216.000000
816.729492	213.000000
816.764709	247.000000
816.799927	214.000000
816.835083	223.000000
816.870300	214.000000
816.905457	218.000000
816.940674	216.000000
816.975830	215.000000
817.010986	214.000000
817.046204	222.000000
817.081421	210.000000
817.116577	215.000000
817.151733	218.000000
817.186951	219.000000
817.222107	217.000000
817.257324	222.000000
817.292419	220.000000
817.327637	213.000000
817.362854	216.000000
817.398010	212.000000
817.433167	211.000000
817.468323	213.000000
817.503479	216.000000
817.538635	225.000000
817.573853	216.000000
817.608948	215.000000
817.644165	211.000000
817.679321	209.000000
817.714478	209.000000
817.749634	220.000000
817.784790	226.000000
817.819946	223.000000
817.855103	209.000000
817.890198	216.000000
817.925415	208.000000
817.960571	220.000000
817.995667	221.000000
818.030823	218.000000
818.066040	213.000000
818.101135	219.000000
818.136292	213.000000
818.171448	211.000000
818.206543	215.000000
818.241699	217.000000
818.276855	215.000000
818.311951	215.000000
818.347107	209.000000
818.382263	219.000000
818.417358	221.000000
818.452515	219.000000
818.487610	226.000000
818.522766	213.000000
818.557922	225.000000
818.593018	213.000000
818.628113	217.000000
818.663269	208.000000
818.698364	218.000000
818.733521	212.000000
818.768677	219.000000
818.803711	208.000000
818.838867	216.000000
818.874023	210.000000
818.909058	208.000000
818.944214	210.000000
818.979370	217.000000
819.014404	214.000000
819.049561	215.000000
819.084595	212.000000
819.119751	209.000000
819.154846	219.000000
819.189941	211.000000
819.225037	213.000000
819.260193	209.000000
819.295227	205.000000
819.330322	209.000000
819.365479	204.000000
819.400513	238.000000
819.435608	205.000000
819.470764	204.000000
819.505798	204.000000
819.540894	209.000000
819.575989	213.000000
819.611084	212.000000
819.646179	219.000000
819.681213	208.000000
819.716309	208.000000
819.751404	209.000000
819.786438	211.000000
819.821533	201.000000
819.856628	210.000000
819.891663	210.000000
819.926758	217.000000
819.961853	213.000000
819.996887	208.000000
820.031982	213.000000
820.067017	210.000000
820.102112	239.000000
820.137207	206.000000
820.172302	216.000000
820.207275	205.000000
820.242371	205.000000
820.277405	203.000000
820.312500	206.000000
820.347534	209.000000
820.382568	211.000000
820.417664	209.000000
820.452759	203.000000
820.487732	207.000000
820.522827	210.000000
820.557861	206.000000
820.592896	207.000000
820.627930	211.000000
820.662964	206.000000
820.698059	211.000000
820.733093	209.000000
820.768127	208.000000
820.803162	212.000000
820.838196	207.000000
820.873230	210.000000
820.908264	209.000000
820.943298	202.000000
820.978333	212.000000
821.013367	208.000000
821.048401	209.000000
821.083435	209.000000
821.118469	203.000000
821.153503	214.000000
821.188477	207.000000
821.223511	205.000000
821.258484	208.000000
821.293579	210.000000
821.328613	202.000000
821.363647	206.000000
821.398621	205.000000
821.433655	209.000000
821.468628	217.000000
821.503662	210.000000
821.538696	207.000000
821.573669	202.000000
821.608704	212.000000
821.643677	206.000000
821.678650	212.000000
821.713684	215.000000
821.748718	207.000000
821.783691	206.000000
821.818726	208.000000
821.853638	209.000000
821.888672	208.000000
821.923706	205.000000
821.958618	209.000000
821.993652	209.000000
822.028687	213.000000
822.063599	218.000000
822.098633	207.000000
822.133667	201.000000
822.168579	212.000000
822.203613	211.000000
822.238586	204.000000
822.273560	208.000000
822.308533	201.000000
822.343567	206.000000
822.378479	209.000000
822.413452	205.000000
822.448425	205.000000
822.483398	209.000000
822.518372	218.000000
822.553345	204.000000
822.588318	210.000000
822.623291	203.000000
822.658203	207.000000
822.693237	203.000000
822.728210	207.000000
822.763123	209.000000
822.798096	203.000000
822.833069	203.000000
822.867981	207.000000
822.902954	203.000000
822.937927	210.000000
822.972900	211.000000
823.007874	203.000000
823.042725	208.000000
823.077698	216.000000
823.112671	200.000000
823.147583	206.000000
823.182556	203.000000
823.217529	210.000000
823.252441	205.000000
823.287415	212.000000
823.322388	208.000000
823.357239	207.000000
823.392212	211.000000
823.427185	213.000000
823.462097	202.000000
823.497009	212.000000
823.531982	206.000000
823.566895	209.000000
823.601807	205.000000
823.636719	204.000000
823.671631	210.000000
823.706604	206.000000
823.741455	209.000000
823.776428	201.000000
823.811340	206.000000
823.846252	213.000000
823.881165	213.000000
823.916138	205.000000
823.950989	214.000000
823.985901	200.000000
824.020813	204.000000
824.055725	202.000000
824.090637	203.000000
824.125610	207.000000
824.160461	210.000000
824.195374	208.000000
824.230225	209.000000
824.265198	196.000000
824.300110	202.000000
824.334961	208.000000
824.369873	196.000000
824.404785	207.000000
824.439636	210.000000
824.474548	191.000000
824.509460	201.000000
824.544312	202.000000
824.579224	208.000000
824.614075	206.000000
824.648987	204.000000
824.683899	203.000000
824.718811	203.000000
824.753662	204.000000
824.788574	210.000000
824.823364	206.000000
824.858276	202.000000
824.893188	209.000000
824.928040	209.000000
824.962952	207.000000
824.997803	210.000000
825.032654	211.000000
825.067566	206.000000
825.102417	201.000000
825.137268	204.000000
825.172119	202.000000
825.206970	202.000000
825.241882	208.000000
825.276733	198.000000
825.311646	200.000000
825.346436	193.000000
825.381348	200.000000
825.416138	196.000000
825.450989	199.000000
825.485901	192.000000
825.520691	196.000000
825.555542	197.000000
825.590454	206.000000
825.625244	192.000000
825.660095	206.000000
825.695007	201.000000
825.729797	201.000000
825.764648	197.000000
825.799438	200.000000
825.834290	202.000000
825.869202	200.000000
825.903992	201.000000
825.938843	199.000000
825.973694	191.000000
826.008484	210.000000
826.043335	192.000000
826.078186	194.000000
826.112976	200.000000
826.147827	203.000000
826.182678	206.000000
826.217468	193.000000
826.252319	207.000000
826.287109	197.000000
826.321899	205.000000
826.356750	201.000000
826.391541	196.000000
826.426392	199.000000
826.461182	201.000000
826.495972	196.000000
826.530823	193.000000
826.565613	199.000000
826.600403	195.000000
826.635254	203.000000
826.670044	194.000000
826.704834	190.000000
826.739685	194.000000
826.774475	199.000000
826.809265	200.000000
826.844055	190.000000
826.878906	203.000000
826.913635	200.000000
826.948425	201.000000
826.983215	200.000000
827.018005	197.000000
827.052856	190.000000
827.087585	200.000000
827.122375	186.000000
827.157227	193.000000
827.191956	202.000000
827.226746	193.000000
827.261536	193.000000
827.296265	193.000000
827.331116	193.000000
827.365906	195.000000
827.400635	190.000000
827.435425	189.000000
827.470215	197.000000
827.504944	198.000000
827.539734	202.000000
827.574463	191.000000
827.609253	197.000000
827.644043	193.000000
827.678772	197.000000
827.713562	193.000000
827.748352	197.000000
827.783081	191.000000
827.817871	199.000000
827.852600	191.000000
827.887329	201.000000
827.922119	189.000000
827.956848	204.000000
827.991638	207.000000
828.026367	199.000000
828.061157	194.000000
828.095886	194.000000
828.130615	205.000000
828.165344	191.000000
828.200073	194.000000
828.234863	195.000000
828.269592	193.000000
828.304321	196.000000
828.339111	192.000000
828.373779	192.000000
828.408569	196.000000
828.443298	198.000000
828.477966	192.000000
828.512756	195.000000
828.547424	192.000000
828.582214	194.000000
828.616943	190.000000
828.651672	193.000000
828.686340	197.000000
828.721130	190.000000
828.755798	191.000000
828.790527	196.000000
828.825256	195.000000
828.859924	193.000000
828.894714	200.000000
828.929443	201.000000
828.964111	191.000000
828.998840	198.000000
829.033569	190.000000
829.068237	196.000000
829.102966	193.000000
829.137634	198.000000
829.172363	202.000000
829.207092	196.000000
829.241821	193.000000
829.276489	189.000000
829.311157	195.000000
829.345825	193.000000
829.380554	200.000000
829.415283	192.000000
829.449951	187.000000
829.484619	203.000000
829.519348	200.000000
829.554016	196.000000
829.588745	198.000000
829.623413	187.000000
829.658081	205.000000
829.692749	190.000000
829.727417	196.000000
829.762146	194.000000
829.796814	194.000000
829.831482	188.000000
829.866150	194.000000
829.900879	189.000000
829.935486	199.000000
829.970154	190.000000
830.004883	203.000000
830.039490	198.000000
830.074219	192.000000
830.108887	196.000000
830.143494	196.000000
830.178223	186.000000
830.212891	194.000000
830.247498	194.000000
830.282166	199.000000
830.316772	198.000000
830.351501	197.000000
830.386169	190.000000
830.420776	194.000000
830.455444	198.000000
830.490112	192.000000
830.524719	188.000000
830.559387	197.000000
830.594055	197.000000
830.628662	196.000000
830.663330	195.000000
830.697998	205.000000
830.732605	200.000000
830.767273	198.000000
830.801941	192.000000
830.836487	206.000000
830.871155	198.000000
830.905762	196.000000
830.940430	191.000000
830.975098	191.000000
831.009644	194.000000
831.044312	197.000000
831.078979	200.000000
831.113525	188.000000
831.148193	193.000000
831.182861	194.000000
831.217407	198.000000
831.252075	200.000000
831.286621	194.000000
831.321289	188.000000
831.355896	196.000000
831.390564	198.000000
831.425110	193.000000
831.459778	194.000000
831.494324	209.000000
831.528931	194.000000
831.563599	199.000000
831.598145	192.000000
831.632751	191.000000
831.667419	192.000000
831.701965	200.000000
831.736572	194.000000
831.771179	194.000000
831.805786	191.000000
831.840393	200.000000
831.874939	189.000000
831.909546	196.000000
831.944153	187.000000
831.978760	194.000000
832.013306	193.000000
832.047913	201.000000
832.082458	203.000000
832.117065	196.000000
832.151672	201.000000
832.186218	195.000000
832.220825	198.000000
832.255432	184.000000
832.289978	196.000000
832.324585	195.000000
832.359192	199.000000
832.393677	191.000000
832.428284	196.000000
832.462830	189.000000
832.497437	196.000000
832.531982	196.000000
832.566589	197.000000
832.601135	194.000000
832.635681	185.000000
832.670227	188.000000
832.704773	200.000000
832.739380	193.000000
832.773926	194.000000
832.808472	191.000000
832.843079	195.000000
832.877563	193.000000
832.912170	193.000000
832.946716	189.000000
832.981201	197.000000
833.015808	197.000000
833.050293	195.000000
833.084839	187.000000
833.119446	191.000000
833.153992	200.000000
833.188477	191.000000
833.223022	193.000000
833.257568	197.000000
833.292114	197.000000
833.326660	201.000000
833.361145	194.000000
833.395691	187.000000
833.430237	194.000000
833.464783	193.000000
833.499329	190.000000
833.533875	187.000000
833.568359	200.000000
833.602905	195.000000
833.637390	198.000000
833.671875	190.000000
833.706421	195.000000
833.740906	193.000000
833.775452	189.000000
833.809998	191.000000
833.844482	200.000000
833.879028	191.000000
833.913513	196.000000
833.947998	192.000000
833.982544	193.000000
834.017090	188.000000
834.051514	185.000000
834.086060	191.000000
834.120544	191.000000
834.155029	192.000000
834.189575	196.000000
834.223999	195.000000
834.258545	196.000000
834.293030	196.000000
834.327515	194.000000
834.362000	190.000000
834.396545	200.000000
834.430969	193.000000
834.465454	198.000000
834.500000	191.000000
834.534424	198.000000
834.568970	184.000000
834.603455	192.000000
834.637878	193.000000
834.672363	197.000000
834.706909	194.000000
834.741333	200.000000
834.775818	191.000000
834.810242	191.000000
834.844727	194.000000
834.879211	191.000000
834.913635	198.000000
834.948181	194.000000
834.982666	201.000000
835.017090	191.000000
835.051575	198.000000
835.086060	193.000000
835.120483	201.000000
835.154907	192.000000
835.189331	193.000000
835.223816	198.000000
835.258301	190.000000
835.292786	186.000000
835.327209	197.000000
835.361694	189.000000
835.396057	193.000000
835.430542	195.000000
835.465027	193.000000
835.499390	191.000000
835.533875	221.000000
835.568359	191.000000
835.602722	189.000000
835.637207	194.000000
835.671692	186.000000
835.706055	205.000000
835.740540	198.000000
835.774902	194.000000
835.809387	194.000000
835.843811	191.000000
835.878235	199.000000
835.912659	186.000000
835.947083	194.000000
835.981506	192.000000
836.015930	189.000000
836.050354	200.000000
836.084778	205.000000
836.119202	198.000000
836.153625	205.000000
836.187988	191.000000
836.222473	191.000000
836.256897	198.000000
836.291260	192.000000
836.325684	201.000000
836.360046	194.000000
836.394470	197.000000
836.428894	199.000000
836.463318	195.000000
836.497681	196.000000
836.532104	201.000000
836.566467	193.000000
836.600891	199.000000
836.635315	196.000000
836.669678	200.000000
836.704102	191.000000
836.738525	196.000000
836.772888	185.000000
836.807251	188.000000
836.841675	197.000000
836.876038	194.000000
836.910461	186.000000
836.944763	197.000000
836.979187	190.000000
837.013611	197.000000
837.047974	189.000000
837.082336	207.000000
837.116699	196.000000
837.151062	196.000000
837.185486	190.000000
837.219849	191.000000
837.254211	199.000000
837.288574	194.000000
837.322937	189.000000
837.357300	187.000000
837.391663	208.000000
837.426086	199.000000
837.460388	196.000000
837.494751	198.000000
837.529114	190.000000
837.563477	200.000000
837.597839	201.000000
837.632141	193.000000
837.666565	195.000000
837.700928	196.000000
837.735229	197.000000
837.769592	197.000000
837.803955	200.000000
837.838257	190.000000
837.872620	191.000000
837.906982	203.000000
837.941284	196.000000
837.975647	195.000000
838.010010	201.000000
838.044312	191.000000
838.078674	193.000000
838.112976	196.000000
838.147339	197.000000
838.181702	194.000000
838.216003	204.000000
838.250366	193.000000
838.284668	197.000000
838.318970	191.000000
838.353333	192.000000
838.387634	192.000000
838.421936	197.000000
838.456299	189.000000
838.490601	203.000000
838.524902	198.000000
838.559265	200.000000
838.593567	196.000000
838.627869	194.000000
838.662170	193.000000
838.696472	190.000000
838.730774	194.000000
838.765137	199.000000
838.799377	185.000000
838.833740	197.000000
838.868042	197.000000
838.902283	196.000000
838.936646	204.000000
838.970947	193.000000
839.005188	201.000000
839.039551	190.000000
839.073792	200.000000
839.108093	192.000000
839.142395	206.000000
839.176697	187.000000
839.210937	198.000000
839.245300	200.000000
839.279541	186.000000
839.313843	193.000000
839.348145	197.000000
839.382385	197.000000
839.416687	198.000000
839.450989	195.000000
839.485229	194.000000
839.519531	188.000000
839.553833	201.000000
839.588013	194.000000
839.622314	201.000000
839.656555	196.000000
839.690857	190.000000
839.725159	189.000000
839.759460	192.000000
839.793640	188.000000
839.827942	193.000000
839.862183	190.000000
839.896423	194.000000
839.930725	208.000000
839.964966	206.000000
839.999207	197.000000
840.033508	202.000000
840.067688	193.000000
840.101990	200.000000
840.136230	195.000000
840.170471	205.000000
840.204712	189.000000
840.238953	193.000000
840.273193	197.000000
840.307434	197.000000
840.341736	193.000000
840.375916	191.000000
840.410217	195.000000
840.444397	199.000000
840.478638	199.000000
840.512878	197.000000
840.547119	195.000000
840.581360	194.000000
840.615601	202.000000
840.649780	204.000000
840.684021	196.000000
840.718262	198.000000
840.752441	202.000000
840.786682	196.000000
840.820862	197.000000
840.855103	199.000000
840.889343	195.000000
840.923584	197.000000
840.957764	194.000000
840.992004	196.000000
841.026184	203.000000
841.060425	193.000000
841.094666	192.000000
841.128845	196.000000
841.163025	197.000000
841.197266	197.000000
841.231445	195.000000
841.265686	194.000000
841.299866	193.000000
841.334045	198.000000
841.368286	195.000000
841.402405	200.000000
841.436646	200.000000
841.470825	194.000000
841.505005	193.000000
841.539185	192.000000
841.573425	192.000000
841.607544	200.000000
841.641785	192.000000
841.675964	192.000000
841.710144	193.000000
841.744324	192.000000
841.778503	196.000000
841.812683	189.000000
841.846863	200.000000
841.881042	206.000000
841.915222	193.000000
841.949402	205.000000
841.983521	186.000000
842.017700	200.000000
842.051880	192.000000
842.086060	197.000000
842.120239	193.000000
842.154419	195.000000
842.188538	190.000000
842.222717	193.000000
842.256897	199.000000
842.291016	195.000000
842.325195	194.000000
842.359375	201.000000
842.393494	195.000000
842.427673	197.000000
842.461853	193.000000
842.495911	205.000000
842.530090	192.000000
842.564209	195.000000
842.598389	193.000000
842.632568	197.000000
842.666626	196.000000
842.700806	193.000000
842.734985	191.000000
842.769043	194.000000
842.803223	196.000000
842.837402	194.000000
842.871460	193.000000
842.905640	201.000000
842.939697	192.000000
842.973877	194.000000
843.007996	199.000000
843.042175	203.000000
843.076233	192.000000
843.110413	194.000000
843.144470	202.000000
843.178589	198.000000
843.212769	195.000000
843.246826	199.000000
843.280945	194.000000
843.315125	193.000000
843.349182	194.000000
843.383301	198.000000
843.417419	206.000000
843.451538	193.000000
843.485657	191.000000
843.519714	194.000000
843.553833	195.000000
843.587952	191.000000
843.622070	191.000000
843.656128	197.000000
843.690247	194.000000
843.724304	194.000000
843.758423	196.000000
843.792542	189.000000
843.826599	194.000000
843.860718	193.000000
843.894836	189.000000
843.928894	190.000000
843.963013	199.000000
843.997070	191.000000
844.031128	194.000000
844.065247	203.000000
844.099304	202.000000
844.133362	193.000000
844.167480	200.000000
844.201599	198.000000
844.235596	194.000000
844.269714	200.000000
844.303711	196.000000
844.337830	189.000000
844.371948	198.000000
844.405945	195.000000
844.440063	191.000000
844.474121	208.000000
844.508118	194.000000
844.542236	197.000000
844.576294	191.000000
844.610352	193.000000
844.644409	194.000000
844.678406	193.000000
844.712524	200.000000
844.746582	201.000000
844.780640	190.000000
844.814636	193.000000
844.848755	205.000000
844.882751	196.000000
844.916809	195.000000
844.950867	199.000000
844.984863	203.000000
845.018921	189.000000
845.052979	192.000000
845.086975	195.000000
845.121033	184.000000
845.155090	192.000000
845.189087	198.000000
845.223145	187.000000
845.257141	194.000000
845.291199	204.000000
845.325256	198.000000
845.359253	195.000000
845.393250	208.000000
845.427307	197.000000
845.461304	197.000000
845.495361	198.000000
845.529358	204.000000
845.563354	194.000000
845.597412	192.000000
845.631409	201.000000
845.665405	205.000000
845.699463	198.000000
845.733459	194.000000
845.767456	198.000000
845.801453	199.000000
845.835449	198.000000
845.869446	200.000000
845.903503	199.000000
845.937439	192.000000
845.971497	199.000000
846.005493	192.000000
846.039429	201.000000
846.073486	205.000000
846.107483	193.000000
846.141418	194.000000
846.175476	198.000000
846.209473	200.000000
846.243408	188.000000
846.277405	197.000000
846.311401	189.000000
846.345337	197.000000
846.379395	198.000000
846.413330	191.000000
846.447327	200.000000
846.481323	190.000000
846.515259	193.000000
846.549255	194.000000
846.583252	195.000000
846.617187	192.000000
846.651184	192.000000
846.685120	192.000000
846.719055	206.000000
846.753052	201.000000
846.786987	201.000000
846.820984	192.000000
846.854980	196.000000
846.888916	192.000000
846.922852	194.000000
846.956848	198.000000
846.990723	196.000000
847.024719	198.000000
847.058716	193.000000
847.092590	203.000000
847.126587	197.000000
847.160522	191.000000
847.194458	201.000000
847.228455	192.000000
847.262390	192.000000
847.296265	194.000000
847.330261	204.000000
847.364136	189.000000
847.398132	195.000000
847.432068	196.000000
847.466003	196.000000
847.499939	192.000000
847.533875	197.000000
847.567749	190.000000
847.601746	193.000000
847.635681	196.000000
847.669556	186.000000
847.703491	198.000000
847.737427	206.000000
847.771301	187.000000
847.805237	201.000000
847.839233	196.000000
847.873108	194.000000
847.907043	191.000000
847.940918	201.000000
847.974854	198.000000
848.008789	200.000000
848.042664	191.000000
848.076538	199.000000
848.110474	193.000000
848.144348	199.000000
848.178284	189.000000
848.212219	200.000000
848.246094	196.000000
848.279968	198.000000
848.313904	201.000000
848.347778	198.000000
848.381653	195.000000
848.415588	193.000000
848.449463	195.000000
848.483337	197.000000
848.517212	205.000000
848.551086	198.000000
848.585022	195.000000
848.618835	207.000000
848.652771	197.000000
848.686646	190.000000
848.720520	203.000000
848.754395	192.000000
848.788330	199.000000
848.822144	197.000000
848.856018	194.000000
848.889954	199.000000
848.923767	195.000000
848.957642	191.000000
848.991577	196.000000
849.025391	190.000000
849.059265	191.000000
849.093079	190.000000
849.126953	194.000000
849.160828	196.000000
849.194641	194.000000
849.228577	191.000000
849.262451	193.000000
849.296265	191.000000
849.330139	198.000000
849.364014	198.000000
849.397827	193.000000
849.431702	197.000000
849.465515	201.000000
849.499329	186.000000
849.533203	192.000000
849.567078	189.000000
849.600891	196.000000
849.634766	193.000000
849.668518	201.000000
849.702393	195.000000
849.736267	192.000000
849.770020	208.000000
849.803894	200.000000
849.837769	197.000000
849.871521	193.000000
849.905396	198.000000
849.939270	189.000000
849.973022	197.000000
850.006897	195.000000
850.040710	200.000000
850.074524	200.000000
850.108337	192.000000
850.142151	197.000000
850.175964	203.000000
850.209778	190.000000
850.243530	185.000000
850.277405	196.000000
850.311218	194.000000
850.344971	191.000000
850.378845	202.000000
850.412659	191.000000
850.446411	194.000000
850.480225	191.000000
850.514038	200.000000
850.547791	193.000000
850.581665	197.000000
850.615417	185.000000
850.649231	197.000000
850.683044	193.000000
850.716858	193.000000
850.750610	192.000000
850.784424	203.000000
850.818176	188.000000
850.851929	193.000000
850.885742	194.000000
850.919495	194.000000
850.953308	202.000000
850.987122	205.000000
851.020874	191.000000
851.054626	191.000000
851.088440	198.000000
851.122192	197.000000
851.156006	197.000000
851.189697	196.000000
851.223511	185.000000
851.257263	197.000000
851.291077	193.000000
851.324829	191.000000
851.358582	197.000000
851.392334	194.000000
851.426086	196.000000
851.459900	201.000000
851.493591	197.000000
851.527344	194.000000
851.561157	197.000000
851.594849	197.000000
851.628662	201.000000
851.662415	201.000000
851.696106	195.000000
851.729858	196.000000
851.763611	190.000000
851.797363	194.000000
851.831116	188.000000
851.864868	195.000000
851.898560	202.000000
851.932312	190.000000
851.966064	201.000000
851.999817	194.000000
852.033569	196.000000
852.067261	200.000000
852.101013	194.000000
852.134766	193.000000
852.168457	189.000000
852.202209	196.000000
852.235901	196.000000
852.269592	196.000000
852.303345	206.000000
852.337036	198.000000
852.370789	195.000000
852.404541	202.000000
852.438171	191.000000
852.471924	196.000000
852.505676	189.000000
852.539307	198.000000
852.573059	189.000000
852.606812	196.000000
852.640442	187.000000
852.674194	201.000000
852.707886	203.000000
852.741577	200.000000
852.775269	192.000000
852.809021	201.000000
852.842651	198.000000
852.876404	198.000000
852.910034	194.000000
852.943787	201.000000
852.977478	193.000000
853.011108	193.000000
853.044861	188.000000
853.078552	199.000000
853.112183	191.000000
853.145874	199.000000
853.179626	189.000000
853.213257	197.000000
853.246948	185.000000
853.280640	202.000000
853.314270	191.000000
853.347961	198.000000
853.381653	198.000000
853.415283	201.000000
853.448975	189.000000
853.482605	198.000000
853.516296	196.000000
853.549988	188.000000
853.583618	194.000000
853.617310	195.000000
853.651001	195.000000
853.684631	192.000000
853.718323	193.000000
853.751953	204.000000
853.785583	188.000000
853.819275	198.000000
853.852966	198.000000
853.886536	192.000000
853.920227	196.000000
853.953918	195.000000
853.987488	194.000000
854.021179	197.000000
854.054749	203.000000
854.088440	197.000000
854.122131	192.000000
854.155701	195.000000
854.189331	196.000000
854.223022	196.000000
854.256592	195.000000
854.290283	190.000000
854.323914	199.000000
854.357483	194.000000
854.391174	197.000000
854.424744	205.000000
854.458374	197.000000
854.492065	207.000000
854.525696	201.000000
854.559265	196.000000
854.592896	207.000000
854.626465	194.000000
854.660095	193.000000
854.693787	197.000000
854.727356	195.000000
854.760986	197.000000
854.794617	202.000000
854.828186	196.000000
854.861816	198.000000
854.895447	199.000000
854.929016	199.000000
854.962585	196.000000
854.996155	206.000000
855.029785	198.000000
855.063416	193.000000
855.097046	200.000000
855.130615	189.000000
855.164185	201.000000
855.197754	198.000000
855.231384	200.000000
855.264954	193.000000
855.298523	201.000000
855.332153	195.000000
855.365723	202.000000
855.399292	190.000000
855.432922	198.000000
855.466492	197.000000
855.500061	194.000000
855.533630	188.000000
855.567200	197.000000
855.600769	199.000000
855.634338	202.000000
855.667969	195.000000
855.701477	193.000000
855.735046	195.000000
855.768616	191.000000
855.802185	193.000000
855.835754	211.000000
855.869324	185.000000
855.902893	197.000000
855.936401	201.000000
855.969971	195.000000
856.003540	187.000000
856.037109	197.000000
856.070618	190.000000
856.104187	193.000000
856.137695	193.000000
856.171265	189.000000
856.204834	199.000000
856.238403	200.000000
856.271912	193.000000
856.305481	199.000000
856.338989	190.000000
856.372559	199.000000
856.406128	199.000000
856.439636	202.000000
856.473145	190.000000
856.506653	205.000000
856.540222	197.000000
856.573792	199.000000
856.607300	201.000000
856.640808	191.000000
856.674377	196.000000
856.707825	227.000000
856.741394	205.000000
856.774902	191.000000
856.808472	192.000000
856.841980	198.000000
856.875488	203.000000
856.908936	188.000000
856.942505	197.000000
856.976013	189.000000
857.009521	194.000000
857.043030	199.000000
857.076477	197.000000
857.110046	199.000000
857.143555	196.000000
857.177063	194.000000
857.210571	195.000000
857.244080	192.000000
857.277527	199.000000
857.311035	190.000000
857.344543	202.000000
857.378052	193.000000
857.411499	204.000000
857.445068	199.000000
857.478516	192.000000
857.512024	190.000000
857.545532	196.000000
857.578979	194.000000
857.612427	197.000000
857.645874	195.000000
857.679382	198.000000
857.712891	201.000000
857.746399	198.000000
857.779846	199.000000
857.813354	201.000000
857.846741	197.000000
857.880249	191.000000
857.913757	197.000000
857.947266	198.000000
857.980652	200.000000
858.014160	192.000000
858.047546	193.000000
858.081055	190.000000
858.114563	203.000000
858.147949	193.000000
858.181458	196.000000
858.214844	193.000000
858.248352	195.000000
858.281799	197.000000
858.315308	208.000000
858.348694	195.000000
858.382141	204.000000
858.415588	197.000000
858.449036	197.000000
858.482483	194.000000
858.515930	196.000000
858.549377	193.000000
858.582825	201.000000
858.616211	195.000000
858.649658	197.000000
858.683105	191.000000
858.716553	191.000000
858.750000	193.000000
858.783386	195.000000
858.816833	189.000000
858.850281	199.000000
858.883728	197.000000
858.917114	199.000000
858.950562	205.000000
858.983948	204.000000
859.017395	199.000000
859.050781	193.000000
859.084167	194.000000
859.117615	195.000000
859.151062	200.000000
859.184448	196.000000
859.217834	196.000000
859.251282	199.000000
859.284668	191.000000
859.318054	189.000000
859.351440	198.000000
859.384888	201.000000
859.418274	190.000000
859.451721	188.000000
859.485046	199.000000
859.518494	200.000000
859.551819	191.000000
859.585266	195.000000
859.618652	204.000000
859.652039	188.000000
859.685425	192.000000
859.718811	189.000000
859.752197	184.000000
859.785583	197.000000
859.819031	199.000000
859.852356	197.000000
859.885742	192.000000
859.919067	192.000000
859.952454	194.000000
859.985901	195.000000
860.019287	196.000000
860.052612	0.000000
860.085999	0.000000
860.119324	0.000000
860.152710	0.000000
860.186096	0.000000
860.219421	0.000000
860.252808	0.000000
860.286133	0.000000
860.319519	0.000000
860.352905	0.000000
860.386292	0.000000
860.419617	0.000000
860.452942	0.000000
860.486267	0.000000
860.519653	0.000000
860.553040	0.000000
860.586365	0.000000
860.619690	0.000000
860.653076	0.000000
860.686340	0.000000
860.719727	0.000000
860.753113	0.000000
860.786377	0.000000
860.819763	0.000000
860.853027	0.000000
860.886414	0.000000
860.919739	0.000000
860.953125	0.000000
860.986389	0.000000
861.019714	0.000000
861.053040	0.000000
861.086365	0.000000
861.119690	0.000000
861.153076	0.000000
861.186340	0.000000
861.219666	0.000000
861.252930	0.000000
861.286316	0.000000
861.319641	0.000000
861.352905	0.000000
861.386230	0.000000
861.419495	0.000000
861.452820	0.000000
861.486145	0.000000
861.519470	0.000000
861.552734	0.000000
861.586060	0.000000
861.619324	0.000000
861.652649	0.000000
861.685974	0.000000
861.719238	0.000000
861.752563	0.000000
861.785828	0.000000
861.819092	0.000000
861.852417	0.000000
861.885742	0.000000
861.918945	0.000000
861.952271	0.000000
861.985535	0.000000
862.018799	0.000000
862.052124	0.000000
862.085449	0.000000
862.118652	0.000000
862.151978	0.000000
862.185181	0.000000
862.218506	0.000000
862.251770	0.000000
862.285034	0.000000
862.318298	0.000000
862.351562	0.000000
862.384827	0.000000
862.418091	0.000000
862.451355	0.000000
862.484619	0.000000
862.517883	0.000000
862.551086	0.000000
862.584351	0.000000
862.617676	0.000000
862.650940	0.000000
862.684143	0.000000
862.717407	0.000000
862.750610	0.000000
862.783875	0.000000
862.817139	0.000000
862.850342	0.000000
862.883606	0.000000
862.916870	0.000000
862.950073	0.000000
862.983337	0.000000
863.016602	0.000000
863.049805	0.000000
863.083069	0.000000
863.116211	0.000000
863.149475	0.000000
863.182739	0.000000
863.216003	0.000000
863.249146	0.000000
863.282410	0.000000
863.315613	0.000000
863.348816	0.000000
863.382080	0.000000
863.415222	0.000000
863.448486	0.000000
863.481689	0.000000
863.514893	0.000000
863.548157	0.000000
863.581360	0.000000
863.614502	0.000000
863.647766	0.000000
863.680908	0.000000
863.714172	0.000000
863.747375	0.000000
863.780579	0.000000
863.813721	0.000000
863.846985	0.000000
863.880127	0.000000
863.913330	0.000000
863.946533	0.000000
863.979675	0.000000
864.012939	0.000000
