Model Number: SPM-001-M   
Serial Number: 10090201
Firmware Version: 004.17.6
Exposure Time: 500000.000000us
Data Taken on: 27-08-2020 09:56:23.972
Wavelength	Amplitude
733.770752	0.000000
733.808716	0.000000
733.846619	0.000000
733.884583	0.000000
733.922546	0.000000
733.960449	0.000000
733.998413	0.000000
734.036377	0.000000
734.074219	0.000000
734.112183	0.000000
734.150085	0.000000
734.188049	0.000000
734.226013	0.000000
734.263916	0.000000
734.301819	0.000000
734.339783	0.000000
734.377686	0.000000
734.415588	0.000000
734.453552	0.000000
734.491455	0.000000
734.529419	0.000000
734.567322	0.000000
734.605225	0.000000
734.643127	0.000000
734.681091	0.000000
734.718994	0.000000
734.756897	0.000000
734.794800	0.000000
734.832703	0.000000
734.870667	0.000000
734.908508	0.000000
734.946472	0.000000
734.984375	0.000000
735.022278	0.000000
735.060181	0.000000
735.098083	0.000000
735.135986	0.000000
735.173889	0.000000
735.211792	0.000000
735.249695	0.000000
735.287598	0.000000
735.325439	0.000000
735.363403	0.000000
735.401306	0.000000
735.439148	0.000000
735.477051	0.000000
735.515015	0.000000
735.552856	0.000000
735.590759	0.000000
735.628662	0.000000
735.666504	0.000000
735.704407	0.000000
735.742310	0.000000
735.780212	0.000000
735.818115	0.000000
735.856018	0.000000
735.893860	0.000000
735.931763	0.000000
735.969604	0.000000
736.007507	0.000000
736.045410	0.000000
736.083252	0.000000
736.121094	0.000000
736.158997	0.000000
736.196838	0.000000
736.234741	0.000000
736.272644	0.000000
736.310486	0.000000
736.348389	0.000000
736.386230	0.000000
736.424072	0.000000
736.461975	0.000000
736.499878	0.000000
736.537720	0.000000
736.575562	0.000000
736.613403	0.000000
736.651306	0.000000
736.689148	0.000000
736.726990	0.000000
736.764893	0.000000
736.802734	0.000000
736.840576	0.000000
736.878418	0.000000
736.916321	0.000000
736.954102	0.000000
736.992004	0.000000
737.029846	0.000000
737.067688	0.000000
737.105530	0.000000
737.143372	0.000000
737.181213	0.000000
737.219116	0.000000
737.256897	0.000000
737.294739	0.000000
737.332642	0.000000
737.370422	0.000000
737.408325	0.000000
737.446167	0.000000
737.483948	0.000000
737.521790	0.000000
737.559692	0.000000
737.597473	0.000000
737.635315	0.000000
737.673157	0.000000
737.710999	0.000000
737.748840	0.000000
737.786621	0.000000
737.824463	0.000000
737.862305	0.000000
737.900085	0.000000
737.937927	0.000000
737.975769	0.000000
738.013550	0.000000
738.051392	0.000000
738.089233	0.000000
738.127014	0.000000
738.164856	0.000000
738.202698	0.000000
738.240479	0.000000
738.278320	0.000000
738.316162	0.000000
738.353943	0.000000
738.391785	0.000000
738.429565	0.000000
738.467407	0.000000
738.505188	0.000000
738.542969	0.000000
738.580811	0.000000
738.618652	0.000000
738.656372	0.000000
738.694214	0.000000
738.732056	0.000000
738.769836	0.000000
738.807617	0.000000
738.845459	0.000000
738.883240	0.000000
738.921021	0.000000
738.958862	0.000000
738.996582	0.000000
739.034424	0.000000
739.072205	0.000000
739.109985	0.000000
739.147827	0.000000
739.185547	0.000000
739.223389	0.000000
739.261169	0.000000
739.298889	0.000000
739.336731	0.000000
739.374512	0.000000
739.412292	0.000000
739.450073	0.000000
739.487854	0.000000
739.525635	0.000000
739.563416	0.000000
739.601135	0.000000
739.638977	0.000000
739.676758	0.000000
739.714478	0.000000
739.752258	0.000000
739.790100	0.000000
739.827820	0.000000
739.865601	0.000000
739.903381	0.000000
739.941101	0.000000
739.978882	186.000000
740.016724	189.000000
740.054443	188.000000
740.092224	183.000000
740.130005	181.000000
740.167725	184.000000
740.205505	181.000000
740.243225	194.000000
740.281006	183.000000
740.318787	176.000000
740.356506	190.000000
740.394287	189.000000
740.432068	181.000000
740.469727	181.000000
740.507507	186.000000
740.545288	182.000000
740.583008	187.000000
740.620789	186.000000
740.658569	176.000000
740.696228	185.000000
740.734009	187.000000
740.771790	173.000000
740.809509	187.000000
740.847229	179.000000
740.884949	179.000000
740.922729	177.000000
740.960449	176.000000
740.998169	182.000000
741.035950	180.000000
741.073669	185.000000
741.111389	187.000000
741.149170	196.000000
741.186890	189.000000
741.224609	186.000000
741.262329	189.000000
741.300110	193.000000
741.337769	183.000000
741.375549	181.000000
741.413208	181.000000
741.450989	184.000000
741.488708	183.000000
741.526367	183.000000
741.564148	189.000000
741.601868	189.000000
741.639526	184.000000
741.677307	184.000000
741.715027	191.000000
741.752686	182.000000
741.790466	195.000000
741.828186	184.000000
741.865845	181.000000
741.903564	177.000000
741.941345	189.000000
741.979004	182.000000
742.016724	190.000000
742.054382	185.000000
742.092102	192.000000
742.129822	178.000000
742.167480	182.000000
742.205200	175.000000
742.242920	187.000000
742.280640	189.000000
742.318359	186.000000
742.356079	179.000000
742.393738	193.000000
742.431396	181.000000
742.469116	187.000000
742.506775	176.000000
742.544495	187.000000
742.582214	184.000000
742.619873	187.000000
742.657593	188.000000
742.695251	191.000000
742.732971	186.000000
742.770630	184.000000
742.808289	182.000000
742.846008	187.000000
742.883728	181.000000
742.921326	187.000000
742.959045	183.000000
742.996765	181.000000
743.034424	184.000000
743.072083	186.000000
743.109802	183.000000
743.147400	181.000000
743.185120	187.000000
743.222839	184.000000
743.260437	190.000000
743.298157	187.000000
743.335754	172.000000
743.373474	184.000000
743.411133	179.000000
743.448792	183.000000
743.486450	187.000000
743.524170	178.000000
743.561768	184.000000
743.599487	186.000000
743.637146	195.000000
743.674744	181.000000
743.712463	187.000000
743.750122	183.000000
743.787720	188.000000
743.825439	177.000000
743.863037	185.000000
743.900696	181.000000
743.938416	210.000000
743.976013	183.000000
744.013672	190.000000
744.051331	192.000000
744.088928	194.000000
744.126587	188.000000
744.164307	192.000000
744.201904	181.000000
744.239563	189.000000
744.277222	187.000000
744.314819	182.000000
744.352478	186.000000
744.390137	185.000000
744.427734	190.000000
744.465393	181.000000
744.502991	174.000000
744.540649	191.000000
744.578308	180.000000
744.615906	181.000000
744.653564	173.000000
744.691223	187.000000
744.728821	174.000000
744.766418	184.000000
744.804077	187.000000
744.841675	184.000000
744.879333	175.000000
744.916992	184.000000
744.954529	186.000000
744.992187	191.000000
745.029785	182.000000
745.067444	188.000000
745.105042	186.000000
745.142639	184.000000
745.180298	193.000000
745.217896	180.000000
745.255493	183.000000
745.293152	192.000000
745.330750	194.000000
745.368347	195.000000
745.405945	192.000000
745.443604	186.000000
745.481140	185.000000
745.518799	183.000000
745.556396	191.000000
745.593994	185.000000
745.631592	184.000000
745.669189	175.000000
745.706787	188.000000
745.744385	178.000000
745.781982	193.000000
745.819580	178.000000
745.857178	185.000000
745.894775	184.000000
745.932373	182.000000
745.969971	182.000000
746.007568	177.000000
746.045166	189.000000
746.082764	192.000000
746.120300	188.000000
746.157898	189.000000
746.195557	186.000000
746.233093	178.000000
746.270691	186.000000
746.308228	186.000000
746.345825	189.000000
746.383423	187.000000
746.420959	182.000000
746.458557	183.000000
746.496155	178.000000
746.533691	189.000000
746.571289	181.000000
746.608887	185.000000
746.646423	188.000000
746.684021	186.000000
746.721619	181.000000
746.759155	190.000000
746.796753	178.000000
746.834351	179.000000
746.871826	183.000000
746.909424	196.000000
746.946960	188.000000
746.984558	188.000000
747.022156	188.000000
747.059631	199.000000
747.097229	188.000000
747.134827	182.000000
747.172363	192.000000
747.209900	192.000000
747.247498	183.000000
747.285034	189.000000
747.322571	195.000000
747.360168	187.000000
747.397644	177.000000
747.435242	190.000000
747.472778	193.000000
747.510315	179.000000
747.547913	186.000000
747.585388	191.000000
747.622925	183.000000
747.660522	181.000000
747.697998	185.000000
747.735596	183.000000
747.773132	185.000000
747.810669	181.000000
747.848206	190.000000
747.885742	182.000000
747.923279	183.000000
747.960815	183.000000
747.998352	189.000000
748.035889	190.000000
748.073425	195.000000
748.110901	182.000000
748.148437	182.000000
748.185974	183.000000
748.223511	194.000000
748.261047	185.000000
748.298584	188.000000
748.336060	180.000000
748.373596	193.000000
748.411133	201.000000
748.448608	182.000000
748.486145	189.000000
748.523682	190.000000
748.561218	189.000000
748.598755	188.000000
748.636292	187.000000
748.673706	183.000000
748.711243	196.000000
748.748718	186.000000
748.786255	182.000000
748.823792	190.000000
748.861267	181.000000
748.898804	189.000000
748.936340	191.000000
748.973816	182.000000
749.011292	194.000000
749.048828	189.000000
749.086304	184.000000
749.123840	198.000000
749.161316	181.000000
749.198792	195.000000
749.236328	194.000000
749.273743	183.000000
749.311279	184.000000
749.348816	188.000000
749.386230	191.000000
749.423767	172.000000
749.461304	187.000000
749.498718	186.000000
749.536255	193.000000
749.573730	202.000000
749.611206	198.000000
749.648682	183.000000
749.686218	187.000000
749.723633	187.000000
749.761169	185.000000
749.798645	180.000000
749.836060	183.000000
749.873596	181.000000
749.911011	189.000000
749.948547	189.000000
749.986023	186.000000
750.023437	183.000000
750.060913	182.000000
750.098450	179.000000
750.135864	189.000000
750.173340	184.000000
750.210815	189.000000
750.248291	178.000000
750.285767	185.000000
750.323242	190.000000
750.360657	189.000000
750.398132	183.000000
750.435608	188.000000
750.473022	183.000000
750.510498	181.000000
750.547974	179.000000
750.585449	188.000000
750.622925	179.000000
750.660339	193.000000
750.697815	183.000000
750.735291	191.000000
750.772644	190.000000
750.810120	189.000000
750.847595	191.000000
750.885010	182.000000
750.922485	198.000000
750.959961	183.000000
750.997375	191.000000
751.034851	191.000000
751.072266	193.000000
751.109680	176.000000
751.147156	190.000000
751.184570	187.000000
751.221985	187.000000
751.259460	176.000000
751.296875	191.000000
751.334290	185.000000
751.371765	191.000000
751.409180	190.000000
751.446594	193.000000
751.484070	194.000000
751.521423	194.000000
751.558899	188.000000
751.596375	195.000000
751.633728	189.000000
751.671204	199.000000
751.708618	183.000000
751.746033	192.000000
751.783447	174.000000
751.820801	185.000000
751.858276	188.000000
751.895691	186.000000
751.933105	181.000000
751.970520	184.000000
752.007935	180.000000
752.045349	192.000000
752.082764	186.000000
752.120178	183.000000
752.157532	177.000000
752.195007	185.000000
752.232422	184.000000
752.269775	194.000000
752.307190	190.000000
752.344543	181.000000
752.382019	186.000000
752.419434	187.000000
752.456787	187.000000
752.494202	190.000000
752.531616	183.000000
752.568970	187.000000
752.606384	189.000000
752.643799	188.000000
752.681152	190.000000
752.718567	190.000000
752.755981	180.000000
752.793335	186.000000
752.830750	179.000000
752.868164	192.000000
752.905518	181.000000
752.942932	193.000000
752.980225	183.000000
753.017639	190.000000
753.055054	190.000000
753.092407	188.000000
753.129822	195.000000
753.167175	202.000000
753.204529	191.000000
753.241943	182.000000
753.279358	181.000000
753.316650	190.000000
753.354065	192.000000
753.391479	191.000000
753.428772	194.000000
753.466187	185.000000
753.503479	182.000000
753.540894	180.000000
753.578308	180.000000
753.615601	182.000000
753.653015	186.000000
753.690369	180.000000
753.727722	185.000000
753.765076	177.000000
753.802490	182.000000
753.839783	179.000000
753.877136	183.000000
753.914551	201.000000
753.951843	181.000000
753.989258	188.000000
754.026611	185.000000
754.063904	189.000000
754.101257	184.000000
754.138611	174.000000
754.175964	187.000000
754.213318	193.000000
754.250610	179.000000
754.288025	179.000000
754.325378	180.000000
754.362671	189.000000
754.400024	186.000000
754.437378	193.000000
754.474670	192.000000
754.512085	183.000000
754.549438	190.000000
754.586731	181.000000
754.624084	187.000000
754.661438	182.000000
754.698730	189.000000
754.736084	184.000000
754.773376	189.000000
754.810730	184.000000
754.848083	187.000000
754.885315	191.000000
754.922668	176.000000
754.960022	179.000000
754.997314	186.000000
755.034668	185.000000
755.072021	190.000000
755.109253	183.000000
755.146606	193.000000
755.183960	185.000000
755.221252	191.000000
755.258545	191.000000
755.295898	198.000000
755.333191	194.000000
755.370544	188.000000
755.407776	193.000000
755.445129	186.000000
755.482422	195.000000
755.519714	179.000000
755.557068	183.000000
755.594360	178.000000
755.631653	197.000000
755.668945	197.000000
755.706299	187.000000
755.743530	197.000000
755.780884	197.000000
755.818176	194.000000
755.855408	195.000000
755.892761	191.000000
755.930054	191.000000
755.967346	188.000000
756.004639	192.000000
756.041870	187.000000
756.079224	197.000000
756.116516	186.000000
756.153748	194.000000
756.191040	197.000000
756.228394	194.000000
756.265625	185.000000
756.302917	192.000000
756.340210	187.000000
756.377441	193.000000
756.414795	199.000000
756.452087	192.000000
756.489319	182.000000
756.526611	197.000000
756.563843	195.000000
756.601135	199.000000
756.638428	197.000000
756.675659	191.000000
756.712952	191.000000
756.750244	196.000000
756.787476	195.000000
756.824768	201.000000
756.862061	191.000000
756.899292	240.000000
756.936584	198.000000
756.973816	208.000000
757.011047	209.000000
757.048340	197.000000
757.085632	197.000000
757.122864	209.000000
757.160156	196.000000
757.197327	196.000000
757.234619	201.000000
757.271912	193.000000
757.309082	203.000000
757.346375	192.000000
757.383667	203.000000
757.420837	201.000000
757.458130	198.000000
757.495422	194.000000
757.532593	201.000000
757.569885	190.000000
757.607117	189.000000
757.644348	192.000000
757.681580	210.000000
757.718811	178.000000
757.756042	196.000000
757.793335	195.000000
757.830505	204.000000
757.867798	194.000000
757.905029	193.000000
757.942200	196.000000
757.979492	195.000000
758.016724	197.000000
758.053894	195.000000
758.091187	217.000000
758.128418	199.000000
758.165588	193.000000
758.202820	209.000000
758.240112	199.000000
758.277283	205.000000
758.314514	195.000000
758.351685	198.000000
758.388916	200.000000
758.426147	204.000000
758.463379	210.000000
758.500610	204.000000
758.537842	202.000000
758.575012	210.000000
758.612244	194.000000
758.649475	213.000000
758.686646	196.000000
758.723877	208.000000
758.761108	211.000000
758.798279	201.000000
758.835510	204.000000
758.872742	210.000000
758.909851	207.000000
758.947083	203.000000
758.984253	203.000000
759.021484	209.000000
759.058716	206.000000
759.095886	208.000000
759.133057	204.000000
759.170288	207.000000
759.207458	204.000000
759.244690	213.000000
759.281860	212.000000
759.319031	205.000000
759.356262	203.000000
759.393433	199.000000
759.430603	204.000000
759.467773	204.000000
759.505005	217.000000
759.542175	212.000000
759.579346	202.000000
759.616516	204.000000
759.653687	212.000000
759.690918	200.000000
759.728027	207.000000
759.765259	210.000000
759.802429	207.000000
759.839539	202.000000
759.876770	213.000000
759.913940	212.000000
759.951111	210.000000
759.988281	206.000000
760.025452	209.000000
760.062561	204.000000
760.099792	216.000000
760.136963	207.000000
760.174072	203.000000
760.211243	198.000000
760.248413	207.000000
760.285583	203.000000
760.322754	225.000000
760.359863	215.000000
760.397034	214.000000
760.434204	207.000000
760.471375	206.000000
760.508545	208.000000
760.545715	214.000000
760.582825	202.000000
760.619995	212.000000
760.657166	206.000000
760.694275	217.000000
760.731445	211.000000
760.768555	213.000000
760.805664	218.000000
760.842834	214.000000
760.879944	219.000000
760.917114	217.000000
760.954285	214.000000
760.991394	209.000000
761.028564	223.000000
761.065674	218.000000
761.102783	214.000000
761.139954	218.000000
761.177124	218.000000
761.214172	225.000000
761.251343	218.000000
761.288452	214.000000
761.325562	224.000000
761.362732	212.000000
761.399841	220.000000
761.436951	218.000000
761.474121	217.000000
761.511169	218.000000
761.548340	223.000000
761.585449	223.000000
761.622559	225.000000
761.659668	220.000000
761.696838	231.000000
761.733887	222.000000
761.771057	223.000000
761.808167	226.000000
761.845276	230.000000
761.882385	235.000000
761.919434	227.000000
761.956604	243.000000
761.993713	223.000000
762.030762	239.000000
762.067871	233.000000
762.105042	229.000000
762.142090	240.000000
762.179199	226.000000
762.216309	238.000000
762.253418	250.000000
762.290527	240.000000
762.327637	238.000000
762.364685	237.000000
762.401794	236.000000
762.438904	238.000000
762.475952	233.000000
762.513062	232.000000
762.550110	229.000000
762.587219	245.000000
762.624329	241.000000
762.661377	241.000000
762.698486	238.000000
762.735596	237.000000
762.772644	236.000000
762.809753	239.000000
762.846863	240.000000
762.883911	245.000000
762.921021	240.000000
762.958069	238.000000
762.995117	248.000000
763.032227	249.000000
763.069336	240.000000
763.106323	242.000000
763.143433	238.000000
763.180481	247.000000
763.217590	247.000000
763.254639	240.000000
763.291687	242.000000
763.328735	248.000000
763.365845	241.000000
763.402893	237.000000
763.439941	251.000000
763.477051	249.000000
763.514038	252.000000
763.551147	244.000000
763.588196	246.000000
763.625244	252.000000
763.662292	259.000000
763.699402	257.000000
763.736389	251.000000
763.773499	259.000000
763.810486	250.000000
763.847534	249.000000
763.884644	256.000000
763.921631	250.000000
763.958679	268.000000
763.995728	257.000000
764.032776	263.000000
764.069824	251.000000
764.106873	259.000000
764.143860	264.000000
764.180969	253.000000
764.218018	259.000000
764.255005	254.000000
764.292053	263.000000
764.329102	272.000000
764.366089	264.000000
764.403137	276.000000
764.440125	264.000000
764.477173	262.000000
764.514221	269.000000
764.551208	271.000000
764.588257	258.000000
764.625305	267.000000
764.662292	267.000000
764.699341	273.000000
764.736389	268.000000
764.773376	285.000000
764.810425	271.000000
764.847473	283.000000
764.884399	276.000000
764.921448	284.000000
764.958435	281.000000
764.995483	270.000000
765.032532	290.000000
765.069458	276.000000
765.106506	280.000000
765.143555	267.000000
765.180481	273.000000
765.217529	280.000000
765.254578	271.000000
765.291504	280.000000
765.328552	279.000000
765.365540	279.000000
765.402527	292.000000
765.439575	277.000000
765.476501	281.000000
765.513550	273.000000
765.550537	286.000000
765.587463	292.000000
765.624512	281.000000
765.661499	270.000000
765.698486	290.000000
765.735474	277.000000
765.772461	283.000000
765.809448	293.000000
765.846436	287.000000
765.883423	297.000000
765.920410	288.000000
765.957397	288.000000
765.994385	295.000000
766.031311	303.000000
766.068359	296.000000
766.105286	297.000000
766.142273	302.000000
766.179260	293.000000
766.216187	287.000000
766.253174	285.000000
766.290161	292.000000
766.327148	300.000000
766.364136	307.000000
766.401123	318.000000
766.438049	303.000000
766.475037	317.000000
766.512024	306.000000
766.548950	323.000000
766.585937	316.000000
766.622864	313.000000
766.659790	312.000000
766.696777	302.000000
766.733704	319.000000
766.770691	309.000000
766.807678	323.000000
766.844604	326.000000
766.881531	325.000000
766.918518	330.000000
766.955444	325.000000
766.992432	321.000000
767.029358	328.000000
767.066284	331.000000
767.103271	330.000000
767.140198	364.000000
767.177124	345.000000
767.214050	335.000000
767.251038	330.000000
767.287964	331.000000
767.324890	332.000000
767.361816	337.000000
767.398743	341.000000
767.435730	345.000000
767.472595	338.000000
767.509583	353.000000
767.546509	335.000000
767.583374	354.000000
767.620361	340.000000
767.657288	349.000000
767.694214	350.000000
767.731140	346.000000
767.768066	348.000000
767.804993	360.000000
767.841919	343.000000
767.878845	345.000000
767.915710	356.000000
767.952698	352.000000
767.989563	354.000000
768.026489	357.000000
768.063416	345.000000
768.100281	353.000000
768.137207	362.000000
768.174133	367.000000
768.211060	367.000000
768.247986	362.000000
768.284912	362.000000
768.321777	366.000000
768.358704	370.000000
768.395630	368.000000
768.432495	361.000000
768.469421	377.000000
768.506348	366.000000
768.543152	380.000000
768.580078	381.000000
768.616943	372.000000
768.653870	380.000000
768.690796	377.000000
768.727661	378.000000
768.764587	375.000000
768.801453	372.000000
768.838318	382.000000
768.875244	380.000000
768.912109	393.000000
768.948975	380.000000
768.985901	386.000000
769.022766	390.000000
769.059631	390.000000
769.096558	391.000000
769.133362	389.000000
769.170288	390.000000
769.207214	386.000000
769.244019	394.000000
769.280945	389.000000
769.317810	408.000000
769.354675	403.000000
769.391541	420.000000
769.428406	405.000000
769.465271	422.000000
769.502136	398.000000
769.539062	408.000000
769.575867	407.000000
769.612732	416.000000
769.649597	417.000000
769.686462	417.000000
769.723328	412.000000
769.760193	411.000000
769.797058	422.000000
769.833923	428.000000
769.870728	422.000000
769.907593	430.000000
769.944519	420.000000
769.981323	431.000000
770.018188	428.000000
770.055054	430.000000
770.091858	435.000000
770.128723	442.000000
770.165588	446.000000
770.202393	428.000000
770.239258	443.000000
770.276062	439.000000
770.312927	439.000000
770.349792	442.000000
770.386597	445.000000
770.423462	451.000000
770.460327	459.000000
770.497131	444.000000
770.533997	439.000000
770.570862	451.000000
770.607605	454.000000
770.644470	454.000000
770.681335	457.000000
770.718140	452.000000
770.754944	451.000000
770.791809	450.000000
770.828613	457.000000
770.865479	451.000000
770.902222	465.000000
770.939087	453.000000
770.975952	455.000000
771.012695	452.000000
771.049561	480.000000
771.086365	455.000000
771.123169	462.000000
771.159973	465.000000
771.196838	473.000000
771.233582	471.000000
771.270447	465.000000
771.307251	478.000000
771.344055	469.000000
771.380859	470.000000
771.417664	471.000000
771.454468	474.000000
771.491272	478.000000
771.528076	474.000000
771.564880	475.000000
771.601685	479.000000
771.638428	476.000000
771.675293	478.000000
771.712097	474.000000
771.748840	489.000000
771.785645	487.000000
771.822449	486.000000
771.859253	489.000000
771.896057	480.000000
771.932861	507.000000
771.969604	502.000000
772.006409	490.000000
772.043213	503.000000
772.079956	496.000000
772.116760	492.000000
772.153503	496.000000
772.190308	523.000000
772.227112	513.000000
772.263855	512.000000
772.300659	515.000000
772.337463	522.000000
772.374207	515.000000
772.411011	525.000000
772.447754	517.000000
772.484497	527.000000
772.521301	511.000000
772.558105	521.000000
772.594849	528.000000
772.631592	534.000000
772.668396	543.000000
772.705139	532.000000
772.741882	536.000000
772.778625	551.000000
772.815430	545.000000
772.852173	561.000000
772.888916	559.000000
772.925720	561.000000
772.962463	561.000000
772.999207	559.000000
773.035950	574.000000
773.072754	574.000000
773.109436	570.000000
773.146240	574.000000
773.182922	567.000000
773.219727	561.000000
773.256470	557.000000
773.293152	566.000000
773.329956	585.000000
773.366699	582.000000
773.403381	567.000000
773.440186	586.000000
773.476929	588.000000
773.513611	586.000000
773.550354	597.000000
773.587158	596.000000
773.623840	575.000000
773.660583	589.000000
773.697327	597.000000
773.734009	596.000000
773.770813	601.000000
773.807495	593.000000
773.844238	604.000000
773.880981	616.000000
773.917664	599.000000
773.954407	611.000000
773.991150	617.000000
774.027832	617.000000
774.064575	609.000000
774.101318	620.000000
774.138000	608.000000
774.174744	624.000000
774.211487	633.000000
774.248108	638.000000
774.284851	629.000000
774.321594	633.000000
774.358276	619.000000
774.395020	643.000000
774.431702	660.000000
774.468384	656.000000
774.505127	655.000000
774.541809	655.000000
774.578491	651.000000
774.615234	644.000000
774.651917	648.000000
774.688599	664.000000
774.725342	670.000000
774.762024	661.000000
774.798706	654.000000
774.835449	652.000000
774.872070	671.000000
774.908813	675.000000
774.945496	677.000000
774.982178	679.000000
775.018860	671.000000
775.055542	659.000000
775.092224	667.000000
775.128967	687.000000
775.165588	702.000000
775.202271	689.000000
775.239014	690.000000
775.275635	674.000000
775.312317	684.000000
775.349060	693.000000
775.385681	718.000000
775.422363	697.000000
775.459045	696.000000
775.495667	678.000000
775.532410	700.000000
775.569092	697.000000
775.605713	714.000000
775.642395	724.000000
775.679016	715.000000
775.715698	710.000000
775.752380	709.000000
775.789001	688.000000
775.825684	714.000000
775.862366	717.000000
775.898987	729.000000
775.935669	716.000000
775.972351	724.000000
776.008972	730.000000
776.045654	730.000000
776.082336	727.000000
776.118958	741.000000
776.155640	727.000000
776.192322	725.000000
776.228882	728.000000
776.265564	737.000000
776.302185	734.000000
776.338867	746.000000
776.375488	746.000000
776.412109	743.000000
776.448792	746.000000
776.485413	746.000000
776.522034	750.000000
776.558716	749.000000
776.595337	753.000000
776.631958	739.000000
776.668579	740.000000
776.705261	745.000000
776.741882	741.000000
776.778503	749.000000
776.815186	754.000000
776.851746	750.000000
776.888367	745.000000
776.924988	755.000000
776.961609	738.000000
776.998291	738.000000
777.034851	747.000000
777.071472	759.000000
777.108154	748.000000
777.144714	756.000000
777.181335	758.000000
777.218018	759.000000
777.254578	789.000000
777.291199	779.000000
777.327759	776.000000
777.364380	791.000000
777.401062	799.000000
777.437622	812.000000
777.474243	806.000000
777.510864	827.000000
777.547424	813.000000
777.584045	821.000000
777.620667	817.000000
777.657227	820.000000
777.693848	829.000000
777.730469	838.000000
777.767029	841.000000
777.803650	832.000000
777.840271	828.000000
777.876831	826.000000
777.913452	845.000000
777.950012	833.000000
777.986633	834.000000
778.023193	835.000000
778.059753	833.000000
778.096375	825.000000
778.132996	838.000000
778.169556	829.000000
778.206116	832.000000
778.242737	834.000000
778.279297	847.000000
778.315857	842.000000
778.352478	865.000000
778.389038	867.000000
778.425598	865.000000
778.462219	888.000000
778.498718	862.000000
778.535339	880.000000
778.571838	885.000000
778.608459	901.000000
778.645020	880.000000
778.681580	907.000000
778.718140	888.000000
778.754761	882.000000
778.791260	877.000000
778.827881	877.000000
778.864441	883.000000
778.900940	893.000000
778.937561	889.000000
778.974121	897.000000
779.010620	884.000000
779.047241	905.000000
779.083801	922.000000
779.120300	915.000000
779.156860	928.000000
779.193359	929.000000
779.229980	935.000000
779.266541	959.000000
779.303040	941.000000
779.339600	952.000000
779.376160	947.000000
779.412659	963.000000
779.449219	950.000000
779.485779	966.000000
779.522278	964.000000
779.558838	961.000000
779.595398	954.000000
779.631897	961.000000
779.668457	969.000000
779.705017	975.000000
779.741516	958.000000
779.778076	951.000000
779.814575	935.000000
779.851074	948.000000
779.887634	958.000000
779.924133	973.000000
779.960693	956.000000
779.997253	958.000000
780.033691	947.000000
780.070251	959.000000
780.106812	967.000000
780.143250	993.000000
780.179810	997.000000
780.216370	994.000000
780.252808	992.000000
780.289368	1006.000000
780.325867	1006.000000
780.362366	1007.000000
780.398865	1040.000000
780.435364	1034.000000
780.471863	1044.000000
780.508423	1024.000000
780.544861	1033.000000
780.581421	1049.000000
780.617920	1046.000000
780.654419	1038.000000
780.690918	1044.000000
780.727417	1028.000000
780.763916	1013.000000
780.800415	1020.000000
780.836914	1035.000000
780.873352	1059.000000
780.909912	1053.000000
780.946411	1028.000000
780.982849	1024.000000
781.019348	1046.000000
781.055786	1045.000000
781.092346	1039.000000
781.128845	1052.000000
781.165283	1043.000000
781.201782	1055.000000
781.238281	1027.000000
781.274719	1061.000000
781.311218	1053.000000
781.347717	1080.000000
781.384155	1076.000000
781.420654	1078.000000
781.457092	1077.000000
781.493591	1066.000000
781.530090	1063.000000
781.566528	1041.000000
781.602966	991.000000
781.639465	934.000000
781.675903	821.000000
781.712402	721.000000
781.748901	639.000000
781.785278	552.000000
781.821777	482.000000
781.858276	427.000000
781.894714	392.000000
781.931152	350.000000
781.967651	314.000000
782.004089	271.000000
782.040527	264.000000
782.076965	251.000000
782.113403	250.000000
782.149902	253.000000
782.186340	250.000000
782.222778	275.000000
782.259277	288.000000
782.295654	342.000000
782.332092	492.000000
782.368591	646.000000
782.404968	781.000000
782.441467	837.000000
782.477905	807.000000
782.514282	737.000000
782.550781	659.000000
782.587219	580.000000
782.623596	512.000000
782.660095	455.000000
782.696472	405.000000
782.732910	366.000000
782.769348	324.000000
782.805786	305.000000
782.842224	282.000000
782.878662	256.000000
782.915039	252.000000
782.951477	257.000000
782.987915	256.000000
783.024292	265.000000
783.060730	288.000000
783.097168	329.000000
783.133545	453.000000
783.169983	628.000000
783.206421	818.000000
783.242798	981.000000
783.279236	1053.000000
783.315613	1087.000000
783.352051	1089.000000
783.388489	1098.000000
783.424866	1074.000000
783.461304	1110.000000
783.497681	1118.000000
783.534058	1122.000000
783.570496	1121.000000
783.606934	1126.000000
783.643250	1131.000000
783.679687	1129.000000
783.716125	1123.000000
783.752441	1138.000000
783.788879	1153.000000
783.825317	1166.000000
783.861633	1172.000000
783.898071	1164.000000
783.934448	1202.000000
783.970825	1212.000000
784.007263	1218.000000
784.043579	1229.000000
784.080017	1259.000000
784.116394	1243.000000
784.152710	1221.000000
784.189148	1218.000000
784.225525	1210.000000
784.261902	1223.000000
784.298279	1219.000000
784.334656	1212.000000
784.371033	1200.000000
784.407410	1193.000000
784.443787	1163.000000
784.480164	1176.000000
784.516541	1163.000000
784.552856	1181.000000
784.589233	1177.000000
784.625610	1167.000000
784.661987	1188.000000
784.698364	1207.000000
784.734741	1197.000000
784.771057	1229.000000
784.807434	1226.000000
784.843811	1233.000000
784.880127	1204.000000
784.916504	1230.000000
784.952881	1237.000000
784.989197	1263.000000
785.025574	1290.000000
785.061951	1290.000000
785.098267	1289.000000
785.134644	1309.000000
785.170959	1329.000000
785.207275	1372.000000
785.243652	1390.000000
785.279968	1358.000000
785.316345	1324.000000
785.352722	1311.000000
785.388977	1299.000000
785.425354	1300.000000
785.461731	1285.000000
785.498047	1280.000000
785.534363	1247.000000
785.570679	1203.000000
785.606995	1187.000000
785.643372	1200.000000
785.679687	1218.000000
785.716003	1193.000000
785.752380	1172.000000
785.788635	1164.000000
785.825012	1167.000000
785.861328	1169.000000
785.897644	1163.000000
785.933960	1216.000000
785.970337	1248.000000
786.006592	1268.000000
786.042908	1271.000000
786.079285	1275.000000
786.115540	1307.000000
786.151855	1347.000000
786.188171	1396.000000
786.224487	1441.000000
786.260803	1447.000000
786.297119	1451.000000
786.333435	1466.000000
786.369751	1461.000000
786.406006	1470.000000
786.442322	1462.000000
786.478638	1465.000000
786.514954	1425.000000
786.551270	1379.000000
786.587585	1345.000000
786.623840	1315.000000
786.660156	1304.000000
786.696472	1292.000000
786.732727	1248.000000
786.769043	1225.000000
786.805298	1197.000000
786.841614	1177.000000
786.877930	1214.000000
786.914124	1215.000000
786.950439	1251.000000
786.986755	1230.000000
787.023010	1262.000000
787.059326	1260.000000
787.095642	1279.000000
787.131836	1338.000000
787.168152	1344.000000
787.204468	1368.000000
787.240723	1386.000000
787.276978	1398.000000
787.313293	1421.000000
787.349548	1436.000000
787.385803	1474.000000
787.422058	1463.000000
787.458313	1465.000000
787.494629	1450.000000
787.530823	1424.000000
787.567139	1399.000000
787.603455	1421.000000
787.639648	1409.000000
787.675903	1398.000000
787.712219	1375.000000
787.748413	1365.000000
787.784729	1325.000000
787.820984	1306.000000
787.857178	1317.000000
787.893494	1308.000000
787.929749	1279.000000
787.965942	1288.000000
788.002258	1284.000000
788.038452	1312.000000
788.074707	1310.000000
788.110962	1324.000000
788.147217	1328.000000
788.183472	1319.000000
788.219727	1331.000000
788.255920	1314.000000
788.292175	1335.000000
788.328430	1339.000000
788.364624	1330.000000
788.400879	1366.000000
788.437134	1343.000000
788.473328	1318.000000
788.509583	1323.000000
788.545837	1344.000000
788.582031	1349.000000
788.618286	1359.000000
788.654480	1352.000000
788.690735	1363.000000
788.726990	1369.000000
788.763184	1370.000000
788.799377	1405.000000
788.835632	1425.000000
788.871826	1443.000000
788.908081	1432.000000
788.944336	1410.000000
788.980469	1415.000000
789.016724	1404.000000
789.052979	1419.000000
789.089111	1401.000000
789.125366	1420.000000
789.161621	1380.000000
789.197754	1363.000000
789.234009	1333.000000
789.270142	1330.000000
789.306396	1339.000000
789.342590	1353.000000
789.378784	1327.000000
789.414978	1318.000000
789.451233	1313.000000
789.487366	1294.000000
789.523621	1313.000000
789.559814	1338.000000
789.595947	1328.000000
789.632202	1341.000000
789.668335	1314.000000
789.704529	1316.000000
789.740784	1364.000000
789.776917	1366.000000
789.813110	1389.000000
789.849304	1411.000000
789.885498	1405.000000
789.921692	1409.000000
789.957886	1389.000000
789.994019	1371.000000
790.030212	1413.000000
790.066406	1429.000000
790.102539	1420.000000
790.138733	1418.000000
790.174927	1392.000000
790.211060	1394.000000
790.247253	1391.000000
790.283386	1392.000000
790.319580	1392.000000
790.355774	1373.000000
790.391907	1305.000000
790.428101	1204.000000
790.464294	1062.000000
790.500427	907.000000
790.536621	759.000000
790.572754	627.000000
790.608887	555.000000
790.645081	599.000000
790.681274	759.000000
790.717346	969.000000
790.753540	1181.000000
790.789734	1328.000000
790.825867	1370.000000
790.862000	1375.000000
790.898132	1360.000000
790.934265	1338.000000
790.970459	1362.000000
791.006592	1365.000000
791.042725	1368.000000
791.078918	1358.000000
791.114990	1313.000000
791.151184	1296.000000
791.187317	1294.000000
791.223389	1296.000000
791.259583	1328.000000
791.295715	1334.000000
791.331848	1344.000000
791.367981	1352.000000
791.404114	1326.000000
791.440247	1361.000000
791.476379	1370.000000
791.512451	1405.000000
791.548584	1417.000000
791.584778	1420.000000
791.620850	1421.000000
791.656982	1428.000000
791.693115	1391.000000
791.729187	1388.000000
791.765381	1414.000000
791.801514	1429.000000
791.837585	1422.000000
791.873718	1415.000000
791.909851	1404.000000
791.945923	1445.000000
791.982056	1448.000000
792.018188	1463.000000
792.054260	1486.000000
792.090393	1456.000000
792.126465	1430.000000
792.162598	1458.000000
792.198669	1445.000000
792.234741	1461.000000
792.270874	1474.000000
792.307007	1442.000000
792.343079	1429.000000
792.379150	1428.000000
792.415283	1393.000000
792.451355	1413.000000
792.487488	1417.000000
792.523560	1429.000000
792.559631	1413.000000
792.595764	1381.000000
792.631836	1396.000000
792.667908	1398.000000
792.703979	1388.000000
792.740051	1397.000000
792.776184	1404.000000
792.812256	1392.000000
792.848328	1385.000000
792.884399	1373.000000
792.920471	1382.000000
792.956543	1407.000000
792.992615	1435.000000
793.028748	1402.000000
793.064758	1397.000000
793.100830	1392.000000
793.136963	1390.000000
793.172974	1411.000000
793.209045	1407.000000
793.245178	1416.000000
793.281189	1412.000000
793.317261	1405.000000
793.353271	1392.000000
793.389404	1392.000000
793.425476	1403.000000
793.461487	1403.000000
793.497559	1403.000000
793.533630	1414.000000
793.569641	1402.000000
793.605713	1386.000000
793.641785	1345.000000
793.677795	1369.000000
793.713867	1377.000000
793.749878	1407.000000
793.785950	1395.000000
793.822021	1394.000000
793.858032	1373.000000
793.894104	1405.000000
793.930176	1410.000000
793.966187	1432.000000
794.002258	1416.000000
794.038269	1411.000000
794.074280	1373.000000
794.110352	1401.000000
794.146423	1403.000000
794.182373	1401.000000
794.218445	1397.000000
794.254517	1431.000000
794.290466	1400.000000
794.326538	1375.000000
794.362549	1375.000000
794.398560	1387.000000
794.434631	1346.000000
794.470581	1339.000000
794.506653	1326.000000
794.542664	1312.000000
794.578674	1297.000000
794.614685	1277.000000
794.650757	1289.000000
794.686707	1306.000000
794.722778	1321.000000
794.758789	1333.000000
794.794739	1339.000000
794.830811	1336.000000
794.866821	1316.000000
794.902771	1327.000000
794.938843	1335.000000
794.974792	1350.000000
795.010803	1364.000000
795.046814	1371.000000
795.082825	1334.000000
795.118835	1346.000000
795.154846	1325.000000
795.190796	1338.000000
795.226807	1325.000000
795.262817	1330.000000
795.298767	1295.000000
795.334778	1305.000000
795.370850	1280.000000
795.406799	1294.000000
795.442810	1310.000000
795.478821	1276.000000
795.514709	1285.000000
795.550720	1281.000000
795.586670	1244.000000
795.622681	1226.000000
795.658691	1226.000000
795.694641	1245.000000
795.730652	1248.000000
795.766663	1247.000000
795.802551	1239.000000
795.838562	1232.000000
795.874573	1224.000000
795.910522	1214.000000
795.946472	1227.000000
795.982483	1238.000000
796.018433	1228.000000
796.054382	1218.000000
796.090393	1235.000000
796.126282	1222.000000
796.162292	1232.000000
796.198242	1249.000000
796.234192	1247.000000
796.270203	1249.000000
796.306091	1242.000000
796.342041	1259.000000
796.378052	1245.000000
796.413940	1272.000000
796.449951	1279.000000
796.485901	1244.000000
796.521790	1239.000000
796.557800	1243.000000
796.593689	1245.000000
796.629639	1252.000000
796.665649	1273.000000
796.701599	1279.000000
796.737488	1262.000000
796.773437	1247.000000
796.809387	1243.000000
796.845337	1244.000000
796.881287	1251.000000
796.917175	1260.000000
796.953125	1289.000000
796.989075	1282.000000
797.024963	1255.000000
797.060913	1243.000000
797.096863	1265.000000
797.132751	1270.000000
797.168701	1243.000000
797.204590	1247.000000
797.240540	1194.000000
797.276489	1203.000000
797.312439	1189.000000
797.348328	1206.000000
797.384277	1235.000000
797.420166	1225.000000
797.456055	1223.000000
797.492004	1197.000000
797.527893	1201.000000
797.563843	1185.000000
797.599731	1195.000000
797.635620	1208.000000
797.671570	1230.000000
797.707520	1218.000000
797.743347	1188.000000
797.779297	1179.000000
797.815125	1192.000000
797.851074	1223.000000
797.887024	1260.000000
797.922913	1249.000000
797.958801	1227.000000
797.994690	1170.000000
798.030579	1185.000000
798.066467	1203.000000
798.102356	1192.000000
798.138245	1211.000000
798.174133	1205.000000
798.210083	1192.000000
798.245911	1197.000000
798.281799	1194.000000
798.317749	1199.000000
798.353577	1208.000000
798.389465	1220.000000
798.425293	1189.000000
798.461243	1165.000000
798.497131	1164.000000
798.532959	1161.000000
798.568848	1201.000000
798.604736	1205.000000
798.640564	1185.000000
798.676453	1175.000000
798.712402	1166.000000
798.748230	1166.000000
798.784119	1153.000000
798.820007	1169.000000
798.855835	1187.000000
798.891724	1172.000000
798.927551	1170.000000
798.963379	1169.000000
798.999268	1182.000000
799.035095	1164.000000
799.070984	1173.000000
799.106873	1177.000000
799.142700	1169.000000
799.178528	1153.000000
799.214417	1158.000000
799.250244	1147.000000
799.286133	1157.000000
799.321960	1173.000000
799.357788	1165.000000
799.393677	1160.000000
799.429504	1165.000000
799.465332	1135.000000
799.501221	1149.000000
799.537048	1156.000000
799.572876	1166.000000
799.608704	1145.000000
799.644531	1151.000000
799.680359	1140.000000
799.716248	1155.000000
799.752014	1170.000000
799.787903	1156.000000
799.823730	1166.000000
799.859558	1167.000000
799.895386	1149.000000
799.931213	1113.000000
799.967041	1121.000000
800.002869	1103.000000
800.038696	1124.000000
800.074463	1125.000000
800.110352	1130.000000
800.146179	1095.000000
800.181946	1097.000000
800.217773	1115.000000
800.253540	1114.000000
800.289429	1118.000000
800.325256	1115.000000
800.361023	1097.000000
800.396851	1082.000000
800.432678	1065.000000
800.468445	1068.000000
800.504272	1075.000000
800.540100	1086.000000
800.575867	1079.000000
800.611694	1078.000000
800.647461	1053.000000
800.683289	1053.000000
800.719116	1057.000000
800.754883	1058.000000
800.790649	1028.000000
800.826477	1040.000000
800.862244	1053.000000
800.898071	1003.000000
800.933838	1015.000000
800.969604	1013.000000
801.005432	1033.000000
801.041199	1045.000000
801.076965	1043.000000
801.112793	1020.000000
801.148560	990.000000
801.184326	996.000000
801.220154	982.000000
801.255859	979.000000
801.291687	999.000000
801.327454	1003.000000
801.363281	983.000000
801.398987	974.000000
801.434814	946.000000
801.470520	976.000000
801.506287	951.000000
801.542114	956.000000
801.577820	948.000000
801.613647	943.000000
801.649414	943.000000
801.685120	955.000000
801.720886	950.000000
801.756714	957.000000
801.792419	950.000000
801.828186	944.000000
801.863892	945.000000
801.899719	927.000000
801.935486	934.000000
801.971252	937.000000
802.006958	944.000000
802.042725	934.000000
802.078430	919.000000
802.114197	915.000000
802.149963	951.000000
802.185669	933.000000
802.221436	934.000000
802.257202	927.000000
802.292908	913.000000
802.328674	927.000000
802.364441	924.000000
802.400146	909.000000
802.435913	916.000000
802.471558	908.000000
802.507324	897.000000
802.543091	891.000000
802.578796	920.000000
802.614502	930.000000
802.650269	920.000000
802.685974	897.000000
802.721741	921.000000
802.757446	927.000000
802.793152	903.000000
802.828918	906.000000
802.864624	898.000000
802.900330	910.000000
802.936035	903.000000
802.971802	899.000000
803.007446	897.000000
803.043213	886.000000
803.078857	892.000000
803.114624	860.000000
803.150330	870.000000
803.185974	865.000000
803.221741	870.000000
803.257446	862.000000
803.293152	864.000000
803.328857	841.000000
803.364563	840.000000
803.400208	851.000000
803.435974	868.000000
803.471680	850.000000
803.507324	843.000000
803.543030	837.000000
803.578735	829.000000
803.614441	827.000000
803.650146	848.000000
803.685791	825.000000
803.721497	851.000000
803.757202	841.000000
803.792847	826.000000
803.828552	819.000000
803.864258	828.000000
803.899902	794.000000
803.935608	798.000000
803.971313	817.000000
804.006958	806.000000
804.042664	799.000000
804.078308	803.000000
804.113953	805.000000
804.149658	809.000000
804.185364	798.000000
804.221008	802.000000
804.256714	792.000000
804.292297	779.000000
804.328003	782.000000
804.363708	781.000000
804.399292	774.000000
804.434998	782.000000
804.470703	759.000000
804.506287	769.000000
804.541992	770.000000
804.577637	757.000000
804.613281	765.000000
804.648926	749.000000
804.684570	762.000000
804.720215	754.000000
804.755920	750.000000
804.791565	753.000000
804.827209	757.000000
804.862854	748.000000
804.898437	760.000000
804.934143	741.000000
804.969788	763.000000
805.005371	740.000000
805.041077	746.000000
805.076721	752.000000
805.112305	745.000000
805.147949	739.000000
805.183655	740.000000
805.219238	736.000000
805.254883	735.000000
805.290466	732.000000
805.326111	741.000000
805.361755	736.000000
805.397400	740.000000
805.432983	746.000000
805.468628	739.000000
805.504211	731.000000
805.539856	739.000000
805.575500	735.000000
805.611084	737.000000
805.646729	718.000000
805.682373	722.000000
805.717957	722.000000
805.753601	736.000000
805.789246	715.000000
805.824768	729.000000
805.860413	741.000000
805.895996	733.000000
805.931641	718.000000
805.967224	723.000000
806.002869	705.000000
806.038452	718.000000
806.074036	717.000000
806.109619	722.000000
806.145264	705.000000
806.180847	714.000000
806.216431	701.000000
806.252014	697.000000
806.287659	689.000000
806.323181	709.000000
806.358826	688.000000
806.394409	689.000000
806.429993	679.000000
806.465576	692.000000
806.501160	668.000000
806.536743	658.000000
806.572327	673.000000
806.607910	692.000000
806.643494	669.000000
806.679077	667.000000
806.714661	664.000000
806.750244	651.000000
806.785828	649.000000
806.821350	656.000000
806.856934	658.000000
806.892517	652.000000
806.928101	662.000000
806.963684	646.000000
806.999268	654.000000
807.034790	629.000000
807.070374	636.000000
807.105896	633.000000
807.141479	637.000000
807.177063	629.000000
807.212585	627.000000
807.248169	627.000000
807.283752	638.000000
807.319275	621.000000
807.354858	643.000000
807.390381	629.000000
807.425903	623.000000
807.461487	624.000000
807.497070	612.000000
807.532593	615.000000
807.568115	621.000000
807.603699	606.000000
807.639221	602.000000
807.674744	610.000000
807.710266	610.000000
807.745850	601.000000
807.781372	603.000000
807.816895	602.000000
807.852417	612.000000
807.888000	602.000000
807.923523	587.000000
807.959045	593.000000
807.994629	588.000000
808.030090	584.000000
808.065613	590.000000
808.101135	593.000000
808.136658	594.000000
808.172241	579.000000
808.207764	583.000000
808.243225	578.000000
808.278809	570.000000
808.314270	586.000000
808.349792	576.000000
808.385315	564.000000
808.420837	567.000000
808.456360	579.000000
808.491882	576.000000
808.527344	582.000000
808.562866	578.000000
808.598389	568.000000
808.633850	565.000000
808.669434	556.000000
808.704895	555.000000
808.740417	560.000000
808.775940	560.000000
808.811462	553.000000
808.846924	545.000000
808.882385	545.000000
808.917847	535.000000
808.953369	539.000000
808.988892	535.000000
809.024353	554.000000
809.059875	548.000000
809.095398	551.000000
809.130798	536.000000
809.166321	526.000000
809.201843	538.000000
809.237305	526.000000
809.272766	538.000000
809.308228	520.000000
809.343750	513.000000
809.379211	524.000000
809.414734	522.000000
809.450134	536.000000
809.485657	516.000000
809.521118	522.000000
809.556580	514.000000
809.592102	518.000000
809.627502	502.000000
809.663025	508.000000
809.698486	502.000000
809.733887	491.000000
809.769409	500.000000
809.804871	490.000000
809.840271	498.000000
809.875793	500.000000
809.911194	494.000000
809.946655	487.000000
809.982178	489.000000
810.017639	488.000000
810.053040	494.000000
810.088501	482.000000
810.123901	475.000000
810.159424	481.000000
810.194885	476.000000
810.230286	487.000000
810.265747	489.000000
810.301208	468.000000
810.336609	485.000000
810.372070	470.000000
810.407532	464.000000
810.442932	470.000000
810.478394	471.000000
810.513794	469.000000
810.549255	470.000000
810.584717	469.000000
810.620117	464.000000
810.655518	462.000000
810.690979	454.000000
810.726379	456.000000
810.761841	452.000000
810.797302	464.000000
810.832642	449.000000
810.868103	463.000000
810.903564	446.000000
810.938904	452.000000
810.974365	445.000000
811.009827	446.000000
811.045166	450.000000
811.080627	444.000000
811.115967	449.000000
811.151428	446.000000
811.186829	440.000000
811.222229	443.000000
811.257629	429.000000
811.293091	439.000000
811.328430	443.000000
811.363892	436.000000
811.399292	440.000000
811.434631	429.000000
811.470093	439.000000
811.505493	433.000000
811.540833	433.000000
811.576294	434.000000
811.611694	432.000000
811.647034	430.000000
811.682434	426.000000
811.717773	430.000000
811.753235	443.000000
811.788635	430.000000
811.823975	432.000000
811.859375	435.000000
811.894775	419.000000
811.930115	425.000000
811.965515	422.000000
812.000916	424.000000
812.036255	429.000000
812.071655	419.000000
812.106995	409.000000
812.142395	417.000000
812.177795	414.000000
812.213196	419.000000
812.248474	420.000000
812.283875	414.000000
812.319214	413.000000
812.354614	417.000000
812.390015	404.000000
812.425293	411.000000
812.460693	406.000000
812.496094	410.000000
812.531433	399.000000
812.566772	410.000000
812.602173	409.000000
812.637451	400.000000
812.672852	399.000000
812.708191	404.000000
812.743530	397.000000
812.778931	393.000000
812.814270	392.000000
812.849609	400.000000
812.884949	383.000000
812.920227	379.000000
812.955627	394.000000
812.990967	391.000000
813.026306	385.000000
813.061646	371.000000
813.096985	362.000000
813.132324	375.000000
813.167664	373.000000
813.203003	377.000000
813.238281	362.000000
813.273682	367.000000
813.308960	362.000000
813.344299	369.000000
813.379639	373.000000
813.414978	362.000000
813.450256	360.000000
813.485596	367.000000
813.520874	357.000000
813.556213	363.000000
813.591614	363.000000
813.626831	347.000000
813.662170	351.000000
813.697510	359.000000
813.732788	354.000000
813.768127	357.000000
813.803467	358.000000
813.838745	349.000000
813.874084	357.000000
813.909363	355.000000
813.944641	359.000000
813.979980	346.000000
814.015320	347.000000
814.050598	350.000000
814.085876	353.000000
814.121155	337.000000
814.156494	348.000000
814.191772	350.000000
814.227051	344.000000
814.262390	345.000000
814.297668	345.000000
814.332947	340.000000
814.368225	337.000000
814.403564	334.000000
814.438782	339.000000
814.474121	336.000000
814.509338	335.000000
814.544617	339.000000
814.579956	335.000000
814.615173	343.000000
814.650513	337.000000
814.685791	330.000000
814.721008	332.000000
814.756348	331.000000
814.791626	333.000000
814.826843	332.000000
814.862122	330.000000
814.897400	329.000000
814.932678	329.000000
814.967957	324.000000
815.003235	322.000000
815.038452	325.000000
815.073730	319.000000
815.108948	332.000000
815.144226	326.000000
815.179504	329.000000
815.214722	309.000000
815.250000	320.000000
815.285278	324.000000
815.320496	317.000000
815.355774	319.000000
815.391052	318.000000
815.426270	318.000000
815.461487	321.000000
815.496765	310.000000
815.531982	311.000000
815.567261	308.000000
815.602539	317.000000
815.637695	306.000000
815.672974	310.000000
815.708191	310.000000
815.743408	315.000000
815.778687	305.000000
815.813904	317.000000
815.849121	291.000000
815.884399	305.000000
815.919556	295.000000
815.954834	299.000000
815.990051	304.000000
816.025269	304.000000
816.060486	291.000000
816.095703	297.000000
816.130920	297.000000
816.166199	302.000000
816.201416	302.000000
816.236572	305.000000
816.271851	291.000000
816.307007	298.000000
816.342224	277.000000
816.377441	291.000000
816.412659	279.000000
816.447876	292.000000
816.483093	289.000000
816.518250	294.000000
816.553467	279.000000
816.588745	289.000000
816.623901	275.000000
816.659119	275.000000
816.694275	283.000000
816.729492	283.000000
816.764709	314.000000
816.799927	277.000000
816.835083	284.000000
816.870300	276.000000
816.905457	275.000000
816.940674	281.000000
816.975830	277.000000
817.010986	273.000000
817.046204	276.000000
817.081421	266.000000
817.116577	273.000000
817.151733	277.000000
817.186951	283.000000
817.222107	272.000000
817.257324	278.000000
817.292419	277.000000
817.327637	273.000000
817.362854	273.000000
817.398010	268.000000
817.433167	268.000000
817.468323	266.000000
817.503479	266.000000
817.538635	279.000000
817.573853	275.000000
817.608948	273.000000
817.644165	265.000000
817.679321	268.000000
817.714478	265.000000
817.749634	271.000000
817.784790	273.000000
817.819946	270.000000
817.855103	253.000000
817.890198	265.000000
817.925415	254.000000
817.960571	266.000000
817.995667	261.000000
818.030823	265.000000
818.066040	256.000000
818.101135	265.000000
818.136292	259.000000
818.171448	259.000000
818.206543	263.000000
818.241699	263.000000
818.276855	263.000000
818.311951	259.000000
818.347107	253.000000
818.382263	263.000000
818.417358	260.000000
818.452515	267.000000
818.487610	268.000000
818.522766	253.000000
818.557922	262.000000
818.593018	258.000000
818.628113	261.000000
818.663269	256.000000
818.698364	259.000000
818.733521	254.000000
818.768677	256.000000
818.803711	250.000000
818.838867	254.000000
818.874023	252.000000
818.909058	250.000000
818.944214	249.000000
818.979370	260.000000
819.014404	247.000000
819.049561	248.000000
819.084595	250.000000
819.119751	246.000000
819.154846	249.000000
819.189941	248.000000
819.225037	247.000000
819.260193	243.000000
819.295227	241.000000
819.330322	243.000000
819.365479	236.000000
819.400513	269.000000
819.435608	235.000000
819.470764	238.000000
819.505798	231.000000
819.540894	238.000000
819.575989	233.000000
819.611084	246.000000
819.646179	244.000000
819.681213	236.000000
819.716309	233.000000
819.751404	240.000000
819.786438	243.000000
819.821533	233.000000
819.856628	233.000000
819.891663	237.000000
819.926758	244.000000
819.961853	245.000000
819.996887	236.000000
820.031982	242.000000
820.067017	231.000000
820.102112	266.000000
820.137207	228.000000
820.172302	250.000000
820.207275	232.000000
820.242371	226.000000
820.277405	233.000000
820.312500	234.000000
820.347534	234.000000
820.382568	241.000000
820.417664	233.000000
820.452759	229.000000
820.487732	230.000000
820.522827	233.000000
820.557861	224.000000
820.592896	231.000000
820.627930	230.000000
820.662964	224.000000
820.698059	230.000000
820.733093	226.000000
820.768127	230.000000
820.803162	228.000000
820.838196	223.000000
820.873230	230.000000
820.908264	231.000000
820.943298	226.000000
820.978333	234.000000
821.013367	225.000000
821.048401	232.000000
821.083435	227.000000
821.118469	225.000000
821.153503	225.000000
821.188477	225.000000
821.223511	214.000000
821.258484	223.000000
821.293579	223.000000
821.328613	218.000000
821.363647	223.000000
821.398621	217.000000
821.433655	219.000000
821.468628	236.000000
821.503662	217.000000
821.538696	228.000000
821.573669	218.000000
821.608704	219.000000
821.643677	220.000000
821.678650	220.000000
821.713684	229.000000
821.748718	223.000000
821.783691	215.000000
821.818726	222.000000
821.853638	224.000000
821.888672	221.000000
821.923706	213.000000
821.958618	217.000000
821.993652	215.000000
822.028687	223.000000
822.063599	225.000000
822.098633	219.000000
822.133667	211.000000
822.168579	218.000000
822.203613	214.000000
822.238586	213.000000
822.273560	217.000000
822.308533	212.000000
822.343567	215.000000
822.378479	212.000000
822.413452	219.000000
822.448425	208.000000
822.483398	222.000000
822.518372	220.000000
822.553345	210.000000
822.588318	220.000000
822.623291	214.000000
822.658203	211.000000
822.693237	216.000000
822.728210	206.000000
822.763123	211.000000
822.798096	209.000000
822.833069	209.000000
822.867981	209.000000
822.902954	211.000000
822.937927	209.000000
822.972900	218.000000
823.007874	205.000000
823.042725	214.000000
823.077698	217.000000
823.112671	206.000000
823.147583	204.000000
823.182556	213.000000
823.217529	207.000000
823.252441	207.000000
823.287415	217.000000
823.322388	206.000000
823.357239	205.000000
823.392212	212.000000
823.427185	208.000000
823.462097	203.000000
823.497009	205.000000
823.531982	207.000000
823.566895	205.000000
823.601807	202.000000
823.636719	205.000000
823.671631	212.000000
823.706604	201.000000
823.741455	210.000000
823.776428	198.000000
823.811340	212.000000
823.846252	213.000000
823.881165	215.000000
823.916138	204.000000
823.950989	217.000000
823.985901	203.000000
824.020813	201.000000
824.055725	203.000000
824.090637	200.000000
824.125610	206.000000
824.160461	203.000000
824.195374	207.000000
824.230225	208.000000
824.265198	198.000000
824.300110	199.000000
824.334961	212.000000
824.369873	194.000000
824.404785	208.000000
824.439636	208.000000
824.474548	192.000000
824.509460	190.000000
824.544312	205.000000
824.579224	206.000000
824.614075	206.000000
824.648987	197.000000
824.683899	199.000000
824.718811	193.000000
824.753662	208.000000
824.788574	203.000000
824.823364	205.000000
824.858276	191.000000
824.893188	205.000000
824.928040	204.000000
824.962952	201.000000
824.997803	205.000000
825.032654	199.000000
825.067566	199.000000
825.102417	199.000000
825.137268	197.000000
825.172119	203.000000
825.206970	196.000000
825.241882	197.000000
825.276733	195.000000
825.311646	197.000000
825.346436	188.000000
825.381348	191.000000
825.416138	201.000000
825.450989	196.000000
825.485901	189.000000
825.520691	192.000000
825.555542	193.000000
825.590454	195.000000
825.625244	185.000000
825.660095	209.000000
825.695007	199.000000
825.729797	197.000000
825.764648	195.000000
825.799438	192.000000
825.834290	205.000000
825.869202	192.000000
825.903992	198.000000
825.938843	193.000000
825.973694	192.000000
826.008484	207.000000
826.043335	194.000000
826.078186	186.000000
826.112976	201.000000
826.147827	199.000000
826.182678	210.000000
826.217468	181.000000
826.252319	204.000000
826.287109	188.000000
826.321899	203.000000
826.356750	187.000000
826.391541	190.000000
826.426392	198.000000
826.461182	195.000000
826.495972	186.000000
826.530823	185.000000
826.565613	193.000000
826.600403	189.000000
826.635254	191.000000
826.670044	189.000000
826.704834	185.000000
826.739685	191.000000
826.774475	193.000000
826.809265	193.000000
826.844055	186.000000
826.878906	203.000000
826.913635	190.000000
826.948425	193.000000
826.983215	190.000000
827.018005	197.000000
827.052856	191.000000
827.087585	195.000000
827.122375	188.000000
827.157227	189.000000
827.191956	203.000000
827.226746	191.000000
827.261536	192.000000
827.296265	185.000000
827.331116	188.000000
827.365906	195.000000
827.400635	183.000000
827.435425	182.000000
827.470215	192.000000
827.504944	189.000000
827.539734	196.000000
827.574463	188.000000
827.609253	198.000000
827.644043	195.000000
827.678772	192.000000
827.713562	189.000000
827.748352	189.000000
827.783081	183.000000
827.817871	195.000000
827.852600	184.000000
827.887329	191.000000
827.922119	179.000000
827.956848	191.000000
827.991638	202.000000
828.026367	191.000000
828.061157	190.000000
828.095886	191.000000
828.130615	199.000000
828.165344	184.000000
828.200073	190.000000
828.234863	190.000000
828.269592	185.000000
828.304321	192.000000
828.339111	186.000000
828.373779	184.000000
828.408569	187.000000
828.443298	193.000000
828.477966	182.000000
828.512756	190.000000
828.547424	182.000000
828.582214	187.000000
828.616943	180.000000
828.651672	185.000000
828.686340	192.000000
828.721130	181.000000
828.755798	185.000000
828.790527	192.000000
828.825256	185.000000
828.859924	188.000000
828.894714	191.000000
828.929443	194.000000
828.964111	184.000000
828.998840	190.000000
829.033569	181.000000
829.068237	190.000000
829.102966	181.000000
829.137634	186.000000
829.172363	184.000000
829.207092	191.000000
829.241821	184.000000
829.276489	178.000000
829.311157	187.000000
829.345825	186.000000
829.380554	191.000000
829.415283	182.000000
829.449951	179.000000
829.484619	196.000000
829.519348	197.000000
829.554016	186.000000
829.588745	188.000000
829.623413	179.000000
829.658081	197.000000
829.692749	182.000000
829.727417	195.000000
829.762146	185.000000
829.796814	185.000000
829.831482	185.000000
829.866150	188.000000
829.900879	187.000000
829.935486	191.000000
829.970154	179.000000
830.004883	202.000000
830.039490	185.000000
830.074219	183.000000
830.108887	186.000000
830.143494	186.000000
830.178223	179.000000
830.212891	184.000000
830.247498	185.000000
830.282166	193.000000
830.316772	191.000000
830.351501	184.000000
830.386169	178.000000
830.420776	185.000000
830.455444	185.000000
830.490112	186.000000
830.524719	174.000000
830.559387	188.000000
830.594055	185.000000
830.628662	186.000000
830.663330	187.000000
830.697998	191.000000
830.732605	183.000000
830.767273	187.000000
830.801941	182.000000
830.836487	193.000000
830.871155	185.000000
830.905762	185.000000
830.940430	177.000000
830.975098	181.000000
831.009644	182.000000
831.044312	193.000000
831.078979	188.000000
831.113525	179.000000
831.148193	186.000000
831.182861	185.000000
831.217407	184.000000
831.252075	203.000000
831.286621	181.000000
831.321289	179.000000
831.355896	186.000000
831.390564	190.000000
831.425110	185.000000
831.459778	190.000000
831.494324	200.000000
831.528931	191.000000
831.563599	191.000000
831.598145	176.000000
831.632751	185.000000
831.667419	183.000000
831.701965	191.000000
831.736572	185.000000
831.771179	180.000000
831.805786	181.000000
831.840393	192.000000
831.874939	178.000000
831.909546	193.000000
831.944153	174.000000
831.978760	190.000000
832.013306	178.000000
832.047913	189.000000
832.082458	188.000000
832.117065	187.000000
832.151672	190.000000
832.186218	188.000000
832.220825	188.000000
832.255432	178.000000
832.289978	178.000000
832.324585	185.000000
832.359192	186.000000
832.393677	182.000000
832.428284	188.000000
832.462830	182.000000
832.497437	181.000000
832.531982	192.000000
832.566589	180.000000
832.601135	187.000000
832.635681	179.000000
832.670227	184.000000
832.704773	193.000000
832.739380	188.000000
832.773926	185.000000
832.808472	182.000000
832.843079	186.000000
832.877563	189.000000
832.912170	180.000000
832.946716	178.000000
832.981201	187.000000
833.015808	189.000000
833.050293	188.000000
833.084839	183.000000
833.119446	186.000000
833.153992	187.000000
833.188477	186.000000
833.223022	185.000000
833.257568	187.000000
833.292114	189.000000
833.326660	201.000000
833.361145	182.000000
833.395691	177.000000
833.430237	184.000000
833.464783	192.000000
833.499329	185.000000
833.533875	182.000000
833.568359	189.000000
833.602905	191.000000
833.637390	190.000000
833.671875	182.000000
833.706421	182.000000
833.740906	183.000000
833.775452	174.000000
833.809998	184.000000
833.844482	197.000000
833.879028	185.000000
833.913513	181.000000
833.947998	189.000000
833.982544	178.000000
834.017090	184.000000
834.051514	176.000000
834.086060	184.000000
834.120544	183.000000
834.155029	190.000000
834.189575	184.000000
834.223999	183.000000
834.258545	187.000000
834.293030	189.000000
834.327515	184.000000
834.362000	180.000000
834.396545	190.000000
834.430969	183.000000
834.465454	191.000000
834.500000	178.000000
834.534424	185.000000
834.568970	181.000000
834.603455	178.000000
834.637878	181.000000
834.672363	185.000000
834.706909	188.000000
834.741333	183.000000
834.775818	178.000000
834.810242	178.000000
834.844727	184.000000
834.879211	186.000000
834.913635	185.000000
834.948181	186.000000
834.982666	187.000000
835.017090	184.000000
835.051575	189.000000
835.086060	180.000000
835.120483	182.000000
835.154907	188.000000
835.189331	188.000000
835.223816	188.000000
835.258301	176.000000
835.292786	181.000000
835.327209	190.000000
835.361694	181.000000
835.396057	176.000000
835.430542	187.000000
835.465027	183.000000
835.499390	182.000000
835.533875	201.000000
835.568359	182.000000
835.602722	174.000000
835.637207	185.000000
835.671692	179.000000
835.706055	202.000000
835.740540	189.000000
835.774902	190.000000
835.809387	181.000000
835.843811	178.000000
835.878235	188.000000
835.912659	181.000000
835.947083	183.000000
835.981506	183.000000
836.015930	177.000000
836.050354	193.000000
836.084778	193.000000
836.119202	190.000000
836.153625	199.000000
836.187988	183.000000
836.222473	183.000000
836.256897	186.000000
836.291260	179.000000
836.325684	188.000000
836.360046	184.000000
836.394470	187.000000
836.428894	190.000000
836.463318	182.000000
836.497681	185.000000
836.532104	191.000000
836.566467	190.000000
836.600891	184.000000
836.635315	190.000000
836.669678	189.000000
836.704102	188.000000
836.738525	191.000000
836.772888	179.000000
836.807251	183.000000
836.841675	191.000000
836.876038	179.000000
836.910461	182.000000
836.944763	186.000000
836.979187	184.000000
837.013611	190.000000
837.047974	178.000000
837.082336	196.000000
837.116699	188.000000
837.151062	184.000000
837.185486	179.000000
837.219849	179.000000
837.254211	192.000000
837.288574	180.000000
837.322937	181.000000
837.357300	168.000000
837.391663	196.000000
837.426086	185.000000
837.460388	190.000000
837.494751	189.000000
837.529114	182.000000
837.563477	188.000000
837.597839	186.000000
837.632141	183.000000
837.666565	188.000000
837.700928	186.000000
837.735229	188.000000
837.769592	188.000000
837.803955	191.000000
837.838257	179.000000
837.872620	183.000000
837.906982	189.000000
837.941284	183.000000
837.975647	184.000000
838.010010	193.000000
838.044312	179.000000
838.078674	182.000000
838.112976	183.000000
838.147339	189.000000
838.181702	185.000000
838.216003	194.000000
838.250366	187.000000
838.284668	186.000000
838.318970	179.000000
838.353333	180.000000
838.387634	188.000000
838.421936	185.000000
838.456299	185.000000
838.490601	191.000000
838.524902	191.000000
838.559265	191.000000
838.593567	192.000000
838.627869	177.000000
838.662170	188.000000
838.696472	179.000000
838.730774	183.000000
838.765137	185.000000
838.799377	171.000000
838.833740	181.000000
838.868042	195.000000
838.902283	175.000000
838.936646	196.000000
838.970947	184.000000
839.005188	193.000000
839.039551	179.000000
839.073792	186.000000
839.108093	185.000000
839.142395	199.000000
839.176697	173.000000
839.210937	185.000000
839.245300	193.000000
839.279541	176.000000
839.313843	179.000000
839.348145	186.000000
839.382385	185.000000
839.416687	188.000000
839.450989	184.000000
839.485229	184.000000
839.519531	183.000000
839.553833	192.000000
839.588013	184.000000
839.622314	184.000000
839.656555	187.000000
839.690857	182.000000
839.725159	178.000000
839.759460	185.000000
839.793640	178.000000
839.827942	184.000000
839.862183	180.000000
839.896423	185.000000
839.930725	195.000000
839.964966	193.000000
839.999207	191.000000
840.033508	194.000000
840.067688	185.000000
840.101990	192.000000
840.136230	187.000000
840.170471	195.000000
840.204712	178.000000
840.238953	184.000000
840.273193	189.000000
840.307434	189.000000
840.341736	183.000000
840.375916	183.000000
840.410217	185.000000
840.444397	189.000000
840.478638	189.000000
840.512878	189.000000
840.547119	188.000000
840.581360	190.000000
840.615601	196.000000
840.649780	193.000000
840.684021	186.000000
840.718262	192.000000
840.752441	195.000000
840.786682	187.000000
840.820862	185.000000
840.855103	189.000000
840.889343	187.000000
840.923584	186.000000
840.957764	190.000000
840.992004	184.000000
841.026184	204.000000
841.060425	184.000000
841.094666	182.000000
841.128845	181.000000
841.163025	186.000000
841.197266	184.000000
841.231445	184.000000
841.265686	187.000000
841.299866	184.000000
841.334045	187.000000
841.368286	185.000000
841.402405	194.000000
841.436646	183.000000
841.470825	181.000000
841.505005	189.000000
841.539185	175.000000
841.573425	187.000000
841.607544	186.000000
841.641785	179.000000
841.675964	184.000000
841.710144	185.000000
841.744324	182.000000
841.778503	186.000000
841.812683	180.000000
841.846863	195.000000
841.881042	194.000000
841.915222	184.000000
841.949402	198.000000
841.983521	179.000000
842.017700	189.000000
842.051880	183.000000
842.086060	188.000000
842.120239	187.000000
842.154419	181.000000
842.188538	185.000000
842.222717	185.000000
842.256897	194.000000
842.291016	189.000000
842.325195	188.000000
842.359375	196.000000
842.393494	191.000000
842.427673	188.000000
842.461853	184.000000
842.495911	200.000000
842.530090	184.000000
842.564209	189.000000
842.598389	186.000000
842.632568	186.000000
842.666626	189.000000
842.700806	185.000000
842.734985	179.000000
842.769043	188.000000
842.803223	181.000000
842.837402	185.000000
842.871460	182.000000
842.905640	198.000000
842.939697	180.000000
842.973877	187.000000
843.007996	191.000000
843.042175	196.000000
843.076233	180.000000
843.110413	186.000000
843.144470	197.000000
843.178589	189.000000
843.212769	187.000000
843.246826	190.000000
843.280945	179.000000
843.315125	184.000000
843.349182	182.000000
843.383301	190.000000
843.417419	202.000000
843.451538	185.000000
843.485657	185.000000
843.519714	189.000000
843.553833	184.000000
843.587952	187.000000
843.622070	181.000000
843.656128	197.000000
843.690247	186.000000
843.724304	189.000000
843.758423	189.000000
843.792542	183.000000
843.826599	189.000000
843.860718	186.000000
843.894836	182.000000
843.928894	188.000000
843.963013	189.000000
843.997070	181.000000
844.031128	184.000000
844.065247	191.000000
844.099304	191.000000
844.133362	188.000000
844.167480	194.000000
844.201599	194.000000
844.235596	191.000000
844.269714	189.000000
844.303711	188.000000
844.337830	175.000000
844.371948	190.000000
844.405945	180.000000
844.440063	180.000000
844.474121	197.000000
844.508118	187.000000
844.542236	185.000000
844.576294	190.000000
844.610352	176.000000
844.644409	189.000000
844.678406	178.000000
844.712524	189.000000
844.746582	191.000000
844.780640	183.000000
844.814636	184.000000
844.848755	197.000000
844.882751	180.000000
844.916809	187.000000
844.950867	184.000000
844.984863	195.000000
845.018921	180.000000
845.052979	183.000000
845.086975	187.000000
845.121033	181.000000
845.155090	179.000000
845.189087	193.000000
845.223145	183.000000
845.257141	188.000000
845.291199	192.000000
845.325256	193.000000
845.359253	191.000000
845.393250	203.000000
845.427307	181.000000
845.461304	190.000000
845.495361	186.000000
845.529358	198.000000
845.563354	187.000000
845.597412	185.000000
845.631409	197.000000
845.665405	198.000000
845.699463	194.000000
845.733459	190.000000
845.767456	195.000000
845.801453	182.000000
845.835449	195.000000
845.869446	195.000000
845.903503	194.000000
845.937439	176.000000
845.971497	200.000000
846.005493	182.000000
846.039429	192.000000
846.073486	196.000000
846.107483	188.000000
846.141418	182.000000
846.175476	187.000000
846.209473	194.000000
846.243408	183.000000
846.277405	189.000000
846.311401	184.000000
846.345337	187.000000
846.379395	195.000000
846.413330	184.000000
846.447327	192.000000
846.481323	179.000000
846.515259	186.000000
846.549255	181.000000
846.583252	189.000000
846.617187	180.000000
846.651184	186.000000
846.685120	186.000000
846.719055	195.000000
846.753052	189.000000
846.786987	194.000000
846.820984	183.000000
846.854980	195.000000
846.888916	180.000000
846.922852	192.000000
846.956848	193.000000
846.990723	186.000000
847.024719	191.000000
847.058716	186.000000
847.092590	189.000000
847.126587	190.000000
847.160522	188.000000
847.194458	194.000000
847.228455	187.000000
847.262390	182.000000
847.296265	185.000000
847.330261	192.000000
847.364136	188.000000
847.398132	185.000000
847.432068	184.000000
847.466003	183.000000
847.499939	189.000000
847.533875	189.000000
847.567749	188.000000
847.601746	183.000000
847.635681	192.000000
847.669556	178.000000
847.703491	195.000000
847.737427	202.000000
847.771301	181.000000
847.805237	188.000000
847.839233	191.000000
847.873108	184.000000
847.907043	191.000000
847.940918	191.000000
847.974854	193.000000
848.008789	189.000000
848.042664	189.000000
848.076538	187.000000
848.110474	187.000000
848.144348	185.000000
848.178284	181.000000
848.212219	185.000000
848.246094	186.000000
848.279968	187.000000
848.313904	189.000000
848.347778	186.000000
848.381653	184.000000
848.415588	181.000000
848.449463	186.000000
848.483337	187.000000
848.517212	193.000000
848.551086	190.000000
848.585022	181.000000
848.618835	197.000000
848.652771	183.000000
848.686646	180.000000
848.720520	198.000000
848.754395	185.000000
848.788330	194.000000
848.822144	193.000000
848.856018	187.000000
848.889954	195.000000
848.923767	183.000000
848.957642	189.000000
848.991577	192.000000
849.025391	185.000000
849.059265	189.000000
849.093079	183.000000
849.126953	184.000000
849.160828	200.000000
849.194641	193.000000
849.228577	187.000000
849.262451	187.000000
849.296265	187.000000
849.330139	183.000000
849.364014	187.000000
849.397827	192.000000
849.431702	189.000000
849.465515	191.000000
849.499329	178.000000
849.533203	181.000000
849.567078	179.000000
849.600891	186.000000
849.634766	189.000000
849.668518	191.000000
849.702393	189.000000
849.736267	180.000000
849.770020	201.000000
849.803894	189.000000
849.837769	188.000000
849.871521	185.000000
849.905396	192.000000
849.939270	185.000000
849.973022	186.000000
850.006897	189.000000
850.040710	191.000000
850.074524	189.000000
850.108337	184.000000
850.142151	190.000000
850.175964	192.000000
850.209778	184.000000
850.243530	181.000000
850.277405	191.000000
850.311218	186.000000
850.344971	185.000000
850.378845	197.000000
850.412659	177.000000
850.446411	187.000000
850.480225	187.000000
850.514038	193.000000
850.547791	191.000000
850.581665	190.000000
850.615417	183.000000
850.649231	197.000000
850.683044	185.000000
850.716858	189.000000
850.750610	191.000000
850.784424	191.000000
850.818176	185.000000
850.851929	186.000000
850.885742	187.000000
850.919495	187.000000
850.953308	198.000000
850.987122	191.000000
851.020874	182.000000
851.054626	183.000000
851.088440	193.000000
851.122192	191.000000
851.156006	192.000000
851.189697	187.000000
851.223511	185.000000
851.257263	190.000000
851.291077	191.000000
851.324829	183.000000
851.358582	186.000000
851.392334	183.000000
851.426086	183.000000
851.459900	197.000000
851.493591	192.000000
851.527344	186.000000
851.561157	188.000000
851.594849	189.000000
851.628662	185.000000
851.662415	193.000000
851.696106	191.000000
851.729858	190.000000
851.763611	179.000000
851.797363	193.000000
851.831116	181.000000
851.864868	188.000000
851.898560	194.000000
851.932312	182.000000
851.966064	192.000000
851.999817	187.000000
852.033569	184.000000
852.067261	191.000000
852.101013	187.000000
852.134766	185.000000
852.168457	175.000000
852.202209	193.000000
852.235901	182.000000
852.269592	193.000000
852.303345	197.000000
852.337036	189.000000
852.370789	184.000000
852.404541	196.000000
852.438171	187.000000
852.471924	191.000000
852.505676	180.000000
852.539307	191.000000
852.573059	187.000000
852.606812	195.000000
852.640442	186.000000
852.674194	195.000000
852.707886	198.000000
852.741577	196.000000
852.775269	184.000000
852.809021	189.000000
852.842651	189.000000
852.876404	195.000000
852.910034	191.000000
852.943787	194.000000
852.977478	194.000000
853.011108	187.000000
853.044861	181.000000
853.078552	197.000000
853.112183	188.000000
853.145874	185.000000
853.179626	176.000000
853.213257	190.000000
853.246948	182.000000
853.280640	197.000000
853.314270	182.000000
853.347961	197.000000
853.381653	188.000000
853.415283	192.000000
853.448975	178.000000
853.482605	190.000000
853.516296	186.000000
853.549988	180.000000
853.583618	182.000000
853.617310	188.000000
853.651001	188.000000
853.684631	186.000000
853.718323	185.000000
853.751953	193.000000
853.785583	179.000000
853.819275	194.000000
853.852966	187.000000
853.886536	183.000000
853.920227	185.000000
853.953918	191.000000
853.987488	182.000000
854.021179	189.000000
854.054749	194.000000
854.088440	192.000000
854.122131	183.000000
854.155701	189.000000
854.189331	184.000000
854.223022	188.000000
854.256592	187.000000
854.290283	188.000000
854.323914	192.000000
854.357483	190.000000
854.391174	191.000000
854.424744	195.000000
854.458374	189.000000
854.492065	197.000000
854.525696	188.000000
854.559265	194.000000
854.592896	196.000000
854.626465	185.000000
854.660095	188.000000
854.693787	186.000000
854.727356	187.000000
854.760986	195.000000
854.794617	192.000000
854.828186	184.000000
854.861816	189.000000
854.895447	183.000000
854.929016	191.000000
854.962585	186.000000
854.996155	199.000000
855.029785	187.000000
855.063416	189.000000
855.097046	191.000000
855.130615	179.000000
855.164185	190.000000
855.197754	192.000000
855.231384	189.000000
855.264954	185.000000
855.298523	189.000000
855.332153	192.000000
855.365723	192.000000
855.399292	184.000000
855.432922	186.000000
855.466492	187.000000
855.500061	183.000000
855.533630	187.000000
855.567200	185.000000
855.600769	192.000000
855.634338	191.000000
855.667969	186.000000
855.701477	183.000000
855.735046	184.000000
855.768616	178.000000
855.802185	190.000000
855.835754	203.000000
855.869324	179.000000
855.902893	185.000000
855.936401	193.000000
855.969971	189.000000
856.003540	180.000000
856.037109	189.000000
856.070618	186.000000
856.104187	184.000000
856.137695	184.000000
856.171265	177.000000
856.204834	186.000000
856.238403	191.000000
856.271912	183.000000
856.305481	191.000000
856.338989	178.000000
856.372559	192.000000
856.406128	190.000000
856.439636	194.000000
856.473145	183.000000
856.506653	192.000000
856.540222	186.000000
856.573792	195.000000
856.607300	189.000000
856.640808	185.000000
856.674377	185.000000
856.707825	217.000000
856.741394	188.000000
856.774902	183.000000
856.808472	179.000000
856.841980	190.000000
856.875488	189.000000
856.908936	179.000000
856.942505	183.000000
856.976013	186.000000
857.009521	182.000000
857.043030	189.000000
857.076477	186.000000
857.110046	192.000000
857.143555	188.000000
857.177063	190.000000
857.210571	185.000000
857.244080	183.000000
857.277527	190.000000
857.311035	187.000000
857.344543	193.000000
857.378052	185.000000
857.411499	193.000000
857.445068	196.000000
857.478516	184.000000
857.512024	182.000000
857.545532	184.000000
857.578979	189.000000
857.612427	189.000000
857.645874	179.000000
857.679382	188.000000
857.712891	190.000000
857.746399	187.000000
857.779846	194.000000
857.813354	194.000000
857.846741	189.000000
857.880249	183.000000
857.913757	190.000000
857.947266	191.000000
857.980652	190.000000
858.014160	184.000000
858.047546	181.000000
858.081055	183.000000
858.114563	197.000000
858.147949	180.000000
858.181458	187.000000
858.214844	192.000000
858.248352	177.000000
858.281799	195.000000
858.315308	199.000000
858.348694	190.000000
858.382141	193.000000
858.415588	194.000000
858.449036	191.000000
858.482483	190.000000
858.515930	179.000000
858.549377	187.000000
858.582825	191.000000
858.616211	193.000000
858.649658	187.000000
858.683105	181.000000
858.716553	182.000000
858.750000	183.000000
858.783386	181.000000
858.816833	179.000000
858.850281	185.000000
858.883728	189.000000
858.917114	185.000000
858.950562	195.000000
858.983948	193.000000
859.017395	195.000000
859.050781	187.000000
859.084167	184.000000
859.117615	181.000000
859.151062	189.000000
859.184448	182.000000
859.217834	188.000000
859.251282	187.000000
859.284668	183.000000
859.318054	180.000000
859.351440	187.000000
859.384888	190.000000
859.418274	176.000000
859.451721	178.000000
859.485046	190.000000
859.518494	191.000000
859.551819	185.000000
859.585266	189.000000
859.618652	191.000000
859.652039	185.000000
859.685425	180.000000
859.718811	181.000000
859.752197	178.000000
859.785583	195.000000
859.819031	194.000000
859.852356	189.000000
859.885742	182.000000
859.919067	190.000000
859.952454	186.000000
859.985901	193.000000
860.019287	185.000000
860.052612	0.000000
860.085999	0.000000
860.119324	0.000000
860.152710	0.000000
860.186096	0.000000
860.219421	0.000000
860.252808	0.000000
860.286133	0.000000
860.319519	0.000000
860.352905	0.000000
860.386292	0.000000
860.419617	0.000000
860.452942	0.000000
860.486267	0.000000
860.519653	0.000000
860.553040	0.000000
860.586365	0.000000
860.619690	0.000000
860.653076	0.000000
860.686340	0.000000
860.719727	0.000000
860.753113	0.000000
860.786377	0.000000
860.819763	0.000000
860.853027	0.000000
860.886414	0.000000
860.919739	0.000000
860.953125	0.000000
860.986389	0.000000
861.019714	0.000000
861.053040	0.000000
861.086365	0.000000
861.119690	0.000000
861.153076	0.000000
861.186340	0.000000
861.219666	0.000000
861.252930	0.000000
861.286316	0.000000
861.319641	0.000000
861.352905	0.000000
861.386230	0.000000
861.419495	0.000000
861.452820	0.000000
861.486145	0.000000
861.519470	0.000000
861.552734	0.000000
861.586060	0.000000
861.619324	0.000000
861.652649	0.000000
861.685974	0.000000
861.719238	0.000000
861.752563	0.000000
861.785828	0.000000
861.819092	0.000000
861.852417	0.000000
861.885742	0.000000
861.918945	0.000000
861.952271	0.000000
861.985535	0.000000
862.018799	0.000000
862.052124	0.000000
862.085449	0.000000
862.118652	0.000000
862.151978	0.000000
862.185181	0.000000
862.218506	0.000000
862.251770	0.000000
862.285034	0.000000
862.318298	0.000000
862.351562	0.000000
862.384827	0.000000
862.418091	0.000000
862.451355	0.000000
862.484619	0.000000
862.517883	0.000000
862.551086	0.000000
862.584351	0.000000
862.617676	0.000000
862.650940	0.000000
862.684143	0.000000
862.717407	0.000000
862.750610	0.000000
862.783875	0.000000
862.817139	0.000000
862.850342	0.000000
862.883606	0.000000
862.916870	0.000000
862.950073	0.000000
862.983337	0.000000
863.016602	0.000000
863.049805	0.000000
863.083069	0.000000
863.116211	0.000000
863.149475	0.000000
863.182739	0.000000
863.216003	0.000000
863.249146	0.000000
863.282410	0.000000
863.315613	0.000000
863.348816	0.000000
863.382080	0.000000
863.415222	0.000000
863.448486	0.000000
863.481689	0.000000
863.514893	0.000000
863.548157	0.000000
863.581360	0.000000
863.614502	0.000000
863.647766	0.000000
863.680908	0.000000
863.714172	0.000000
863.747375	0.000000
863.780579	0.000000
863.813721	0.000000
863.846985	0.000000
863.880127	0.000000
863.913330	0.000000
863.946533	0.000000
863.979675	0.000000
864.012939	0.000000
