Model Number: SPM-001-M   
Serial Number: 10090201
Firmware Version: 004.17.6
Exposure Time: 500000.000000us
Data Taken on: 27-08-2020 10:00:04.971
Wavelength	Amplitude
733.770752	0.000000
733.808716	0.000000
733.846619	0.000000
733.884583	0.000000
733.922546	0.000000
733.960449	0.000000
733.998413	0.000000
734.036377	0.000000
734.074219	0.000000
734.112183	0.000000
734.150085	0.000000
734.188049	0.000000
734.226013	0.000000
734.263916	0.000000
734.301819	0.000000
734.339783	0.000000
734.377686	0.000000
734.415588	0.000000
734.453552	0.000000
734.491455	0.000000
734.529419	0.000000
734.567322	0.000000
734.605225	0.000000
734.643127	0.000000
734.681091	0.000000
734.718994	0.000000
734.756897	0.000000
734.794800	0.000000
734.832703	0.000000
734.870667	0.000000
734.908508	0.000000
734.946472	0.000000
734.984375	0.000000
735.022278	0.000000
735.060181	0.000000
735.098083	0.000000
735.135986	0.000000
735.173889	0.000000
735.211792	0.000000
735.249695	0.000000
735.287598	0.000000
735.325439	0.000000
735.363403	0.000000
735.401306	0.000000
735.439148	0.000000
735.477051	0.000000
735.515015	0.000000
735.552856	0.000000
735.590759	0.000000
735.628662	0.000000
735.666504	0.000000
735.704407	0.000000
735.742310	0.000000
735.780212	0.000000
735.818115	0.000000
735.856018	0.000000
735.893860	0.000000
735.931763	0.000000
735.969604	0.000000
736.007507	0.000000
736.045410	0.000000
736.083252	0.000000
736.121094	0.000000
736.158997	0.000000
736.196838	0.000000
736.234741	0.000000
736.272644	0.000000
736.310486	0.000000
736.348389	0.000000
736.386230	0.000000
736.424072	0.000000
736.461975	0.000000
736.499878	0.000000
736.537720	0.000000
736.575562	0.000000
736.613403	0.000000
736.651306	0.000000
736.689148	0.000000
736.726990	0.000000
736.764893	0.000000
736.802734	0.000000
736.840576	0.000000
736.878418	0.000000
736.916321	0.000000
736.954102	0.000000
736.992004	0.000000
737.029846	0.000000
737.067688	0.000000
737.105530	0.000000
737.143372	0.000000
737.181213	0.000000
737.219116	0.000000
737.256897	0.000000
737.294739	0.000000
737.332642	0.000000
737.370422	0.000000
737.408325	0.000000
737.446167	0.000000
737.483948	0.000000
737.521790	0.000000
737.559692	0.000000
737.597473	0.000000
737.635315	0.000000
737.673157	0.000000
737.710999	0.000000
737.748840	0.000000
737.786621	0.000000
737.824463	0.000000
737.862305	0.000000
737.900085	0.000000
737.937927	0.000000
737.975769	0.000000
738.013550	0.000000
738.051392	0.000000
738.089233	0.000000
738.127014	0.000000
738.164856	0.000000
738.202698	0.000000
738.240479	0.000000
738.278320	0.000000
738.316162	0.000000
738.353943	0.000000
738.391785	0.000000
738.429565	0.000000
738.467407	0.000000
738.505188	0.000000
738.542969	0.000000
738.580811	0.000000
738.618652	0.000000
738.656372	0.000000
738.694214	0.000000
738.732056	0.000000
738.769836	0.000000
738.807617	0.000000
738.845459	0.000000
738.883240	0.000000
738.921021	0.000000
738.958862	0.000000
738.996582	0.000000
739.034424	0.000000
739.072205	0.000000
739.109985	0.000000
739.147827	0.000000
739.185547	0.000000
739.223389	0.000000
739.261169	0.000000
739.298889	0.000000
739.336731	0.000000
739.374512	0.000000
739.412292	0.000000
739.450073	0.000000
739.487854	0.000000
739.525635	0.000000
739.563416	0.000000
739.601135	0.000000
739.638977	0.000000
739.676758	0.000000
739.714478	0.000000
739.752258	0.000000
739.790100	0.000000
739.827820	0.000000
739.865601	0.000000
739.903381	0.000000
739.941101	0.000000
739.978882	186.000000
740.016724	184.000000
740.054443	189.000000
740.092224	187.000000
740.130005	188.000000
740.167725	181.000000
740.205505	181.000000
740.243225	194.000000
740.281006	183.000000
740.318787	182.000000
740.356506	193.000000
740.394287	189.000000
740.432068	185.000000
740.469727	179.000000
740.507507	190.000000
740.545288	183.000000
740.583008	184.000000
740.620789	185.000000
740.658569	180.000000
740.696228	189.000000
740.734009	187.000000
740.771790	173.000000
740.809509	193.000000
740.847229	181.000000
740.884949	187.000000
740.922729	177.000000
740.960449	184.000000
740.998169	182.000000
741.035950	181.000000
741.073669	182.000000
741.111389	186.000000
741.149170	193.000000
741.186890	198.000000
741.224609	185.000000
741.262329	186.000000
741.300110	191.000000
741.337769	179.000000
741.375549	179.000000
741.413208	185.000000
741.450989	180.000000
741.488708	184.000000
741.526367	178.000000
741.564148	192.000000
741.601868	190.000000
741.639526	187.000000
741.677307	187.000000
741.715027	189.000000
741.752686	184.000000
741.790466	191.000000
741.828186	189.000000
741.865845	180.000000
741.903564	176.000000
741.941345	185.000000
741.979004	179.000000
742.016724	191.000000
742.054382	187.000000
742.092102	192.000000
742.129822	180.000000
742.167480	184.000000
742.205200	184.000000
742.242920	189.000000
742.280640	193.000000
742.318359	177.000000
742.356079	181.000000
742.393738	188.000000
742.431396	186.000000
742.469116	193.000000
742.506775	178.000000
742.544495	185.000000
742.582214	191.000000
742.619873	185.000000
742.657593	190.000000
742.695251	188.000000
742.732971	185.000000
742.770630	183.000000
742.808289	183.000000
742.846008	185.000000
742.883728	186.000000
742.921326	182.000000
742.959045	184.000000
742.996765	178.000000
743.034424	188.000000
743.072083	177.000000
743.109802	184.000000
743.147400	175.000000
743.185120	190.000000
743.222839	181.000000
743.260437	193.000000
743.298157	184.000000
743.335754	175.000000
743.373474	183.000000
743.411133	180.000000
743.448792	183.000000
743.486450	187.000000
743.524170	176.000000
743.561768	185.000000
743.599487	196.000000
743.637146	196.000000
743.674744	180.000000
743.712463	189.000000
743.750122	185.000000
743.787720	184.000000
743.825439	182.000000
743.863037	186.000000
743.900696	183.000000
743.938416	211.000000
743.976013	185.000000
744.013672	193.000000
744.051331	191.000000
744.088928	193.000000
744.126587	193.000000
744.164307	190.000000
744.201904	183.000000
744.239563	185.000000
744.277222	189.000000
744.314819	187.000000
744.352478	194.000000
744.390137	185.000000
744.427734	190.000000
744.465393	182.000000
744.502991	181.000000
744.540649	186.000000
744.578308	188.000000
744.615906	179.000000
744.653564	176.000000
744.691223	185.000000
744.728821	184.000000
744.766418	185.000000
744.804077	191.000000
744.841675	180.000000
744.879333	180.000000
744.916992	176.000000
744.954529	183.000000
744.992187	187.000000
745.029785	183.000000
745.067444	177.000000
745.105042	186.000000
745.142639	183.000000
745.180298	195.000000
745.217896	184.000000
745.255493	177.000000
745.293152	186.000000
745.330750	191.000000
745.368347	190.000000
745.405945	187.000000
745.443604	186.000000
745.481140	188.000000
745.518799	184.000000
745.556396	189.000000
745.593994	186.000000
745.631592	184.000000
745.669189	177.000000
745.706787	186.000000
745.744385	178.000000
745.781982	189.000000
745.819580	185.000000
745.857178	182.000000
745.894775	189.000000
745.932373	183.000000
745.969971	185.000000
746.007568	177.000000
746.045166	195.000000
746.082764	189.000000
746.120300	190.000000
746.157898	189.000000
746.195557	188.000000
746.233093	177.000000
746.270691	189.000000
746.308228	186.000000
746.345825	193.000000
746.383423	190.000000
746.420959	182.000000
746.458557	184.000000
746.496155	182.000000
746.533691	183.000000
746.571289	182.000000
746.608887	184.000000
746.646423	185.000000
746.684021	186.000000
746.721619	185.000000
746.759155	187.000000
746.796753	182.000000
746.834351	177.000000
746.871826	182.000000
746.909424	191.000000
746.946960	185.000000
746.984558	181.000000
747.022156	179.000000
747.059631	190.000000
747.097229	182.000000
747.134827	176.000000
747.172363	191.000000
747.209900	187.000000
747.247498	180.000000
747.285034	189.000000
747.322571	192.000000
747.360168	179.000000
747.397644	175.000000
747.435242	190.000000
747.472778	193.000000
747.510315	179.000000
747.547913	187.000000
747.585388	192.000000
747.622925	187.000000
747.660522	175.000000
747.697998	180.000000
747.735596	184.000000
747.773132	183.000000
747.810669	186.000000
747.848206	190.000000
747.885742	180.000000
747.923279	178.000000
747.960815	184.000000
747.998352	189.000000
748.035889	194.000000
748.073425	193.000000
748.110901	189.000000
748.148437	179.000000
748.185974	185.000000
748.223511	194.000000
748.261047	190.000000
748.298584	184.000000
748.336060	186.000000
748.373596	189.000000
748.411133	205.000000
748.448608	183.000000
748.486145	190.000000
748.523682	188.000000
748.561218	194.000000
748.598755	184.000000
748.636292	184.000000
748.673706	187.000000
748.711243	194.000000
748.748718	182.000000
748.786255	186.000000
748.823792	186.000000
748.861267	179.000000
748.898804	185.000000
748.936340	188.000000
748.973816	178.000000
749.011292	189.000000
749.048828	184.000000
749.086304	185.000000
749.123840	191.000000
749.161316	179.000000
749.198792	194.000000
749.236328	189.000000
749.273743	187.000000
749.311279	185.000000
749.348816	188.000000
749.386230	189.000000
749.423767	173.000000
749.461304	193.000000
749.498718	187.000000
749.536255	197.000000
749.573730	200.000000
749.611206	192.000000
749.648682	182.000000
749.686218	185.000000
749.723633	189.000000
749.761169	188.000000
749.798645	181.000000
749.836060	185.000000
749.873596	186.000000
749.911011	185.000000
749.948547	193.000000
749.986023	183.000000
750.023437	186.000000
750.060913	185.000000
750.098450	178.000000
750.135864	189.000000
750.173340	185.000000
750.210815	190.000000
750.248291	186.000000
750.285767	182.000000
750.323242	192.000000
750.360657	185.000000
750.398132	181.000000
750.435608	191.000000
750.473022	182.000000
750.510498	177.000000
750.547974	182.000000
750.585449	185.000000
750.622925	181.000000
750.660339	195.000000
750.697815	185.000000
750.735291	183.000000
750.772644	191.000000
750.810120	186.000000
750.847595	191.000000
750.885010	179.000000
750.922485	196.000000
750.959961	181.000000
750.997375	193.000000
751.034851	186.000000
751.072266	188.000000
751.109680	176.000000
751.147156	190.000000
751.184570	188.000000
751.221985	189.000000
751.259460	177.000000
751.296875	186.000000
751.334290	180.000000
751.371765	192.000000
751.409180	188.000000
751.446594	193.000000
751.484070	185.000000
751.521423	187.000000
751.558899	185.000000
751.596375	195.000000
751.633728	191.000000
751.671204	200.000000
751.708618	184.000000
751.746033	191.000000
751.783447	176.000000
751.820801	181.000000
751.858276	189.000000
751.895691	184.000000
751.933105	182.000000
751.970520	183.000000
752.007935	182.000000
752.045349	187.000000
752.082764	186.000000
752.120178	184.000000
752.157532	184.000000
752.195007	181.000000
752.232422	193.000000
752.269775	189.000000
752.307190	191.000000
752.344543	179.000000
752.382019	186.000000
752.419434	181.000000
752.456787	185.000000
752.494202	190.000000
752.531616	188.000000
752.568970	185.000000
752.606384	188.000000
752.643799	188.000000
752.681152	192.000000
752.718567	187.000000
752.755981	180.000000
752.793335	184.000000
752.830750	177.000000
752.868164	191.000000
752.905518	178.000000
752.942932	191.000000
752.980225	182.000000
753.017639	184.000000
753.055054	187.000000
753.092407	186.000000
753.129822	187.000000
753.167175	192.000000
753.204529	185.000000
753.241943	181.000000
753.279358	182.000000
753.316650	190.000000
753.354065	185.000000
753.391479	193.000000
753.428772	196.000000
753.466187	185.000000
753.503479	185.000000
753.540894	183.000000
753.578308	181.000000
753.615601	183.000000
753.653015	191.000000
753.690369	181.000000
753.727722	180.000000
753.765076	181.000000
753.802490	180.000000
753.839783	182.000000
753.877136	188.000000
753.914551	205.000000
753.951843	183.000000
753.989258	188.000000
754.026611	188.000000
754.063904	187.000000
754.101257	180.000000
754.138611	180.000000
754.175964	186.000000
754.213318	201.000000
754.250610	179.000000
754.288025	184.000000
754.325378	175.000000
754.362671	192.000000
754.400024	184.000000
754.437378	200.000000
754.474670	194.000000
754.512085	184.000000
754.549438	187.000000
754.586731	183.000000
754.624084	187.000000
754.661438	183.000000
754.698730	187.000000
754.736084	184.000000
754.773376	184.000000
754.810730	190.000000
754.848083	181.000000
754.885315	193.000000
754.922668	173.000000
754.960022	181.000000
754.997314	194.000000
755.034668	182.000000
755.072021	187.000000
755.109253	185.000000
755.146606	187.000000
755.183960	187.000000
755.221252	193.000000
755.258545	191.000000
755.295898	191.000000
755.333191	194.000000
755.370544	189.000000
755.407776	185.000000
755.445129	189.000000
755.482422	191.000000
755.519714	184.000000
755.557068	179.000000
755.594360	178.000000
755.631653	192.000000
755.668945	198.000000
755.706299	188.000000
755.743530	202.000000
755.780884	200.000000
755.818176	196.000000
755.855408	193.000000
755.892761	195.000000
755.930054	188.000000
755.967346	194.000000
756.004639	192.000000
756.041870	187.000000
756.079224	191.000000
756.116516	187.000000
756.153748	190.000000
756.191040	198.000000
756.228394	194.000000
756.265625	186.000000
756.302917	194.000000
756.340210	186.000000
756.377441	191.000000
756.414795	202.000000
756.452087	188.000000
756.489319	185.000000
756.526611	190.000000
756.563843	189.000000
756.601135	197.000000
756.638428	203.000000
756.675659	190.000000
756.712952	196.000000
756.750244	197.000000
756.787476	191.000000
756.824768	193.000000
756.862061	191.000000
756.899292	243.000000
756.936584	195.000000
756.973816	205.000000
757.011047	206.000000
757.048340	192.000000
757.085632	196.000000
757.122864	208.000000
757.160156	191.000000
757.197327	196.000000
757.234619	200.000000
757.271912	193.000000
757.309082	198.000000
757.346375	196.000000
757.383667	200.000000
757.420837	195.000000
757.458130	198.000000
757.495422	195.000000
757.532593	199.000000
757.569885	192.000000
757.607117	193.000000
757.644348	198.000000
757.681580	206.000000
757.718811	184.000000
757.756042	195.000000
757.793335	197.000000
757.830505	200.000000
757.867798	197.000000
757.905029	191.000000
757.942200	199.000000
757.979492	192.000000
758.016724	199.000000
758.053894	195.000000
758.091187	222.000000
758.128418	198.000000
758.165588	202.000000
758.202820	207.000000
758.240112	202.000000
758.277283	208.000000
758.314514	202.000000
758.351685	194.000000
758.388916	209.000000
758.426147	209.000000
758.463379	211.000000
758.500610	199.000000
758.537842	201.000000
758.575012	211.000000
758.612244	198.000000
758.649475	211.000000
758.686646	198.000000
758.723877	202.000000
758.761108	213.000000
758.798279	203.000000
758.835510	207.000000
758.872742	207.000000
758.909851	207.000000
758.947083	201.000000
758.984253	207.000000
759.021484	208.000000
759.058716	210.000000
759.095886	211.000000
759.133057	207.000000
759.170288	207.000000
759.207458	201.000000
759.244690	216.000000
759.281860	213.000000
759.319031	205.000000
759.356262	204.000000
759.393433	200.000000
759.430603	200.000000
759.467773	207.000000
759.505005	210.000000
759.542175	213.000000
759.579346	207.000000
759.616516	205.000000
759.653687	207.000000
759.690918	205.000000
759.728027	207.000000
759.765259	210.000000
759.802429	209.000000
759.839539	206.000000
759.876770	211.000000
759.913940	215.000000
759.951111	211.000000
759.988281	208.000000
760.025452	205.000000
760.062561	203.000000
760.099792	217.000000
760.136963	215.000000
760.174072	206.000000
760.211243	205.000000
760.248413	203.000000
760.285583	204.000000
760.322754	218.000000
760.359863	215.000000
760.397034	213.000000
760.434204	209.000000
760.471375	209.000000
760.508545	207.000000
760.545715	206.000000
760.582825	203.000000
760.619995	212.000000
760.657166	205.000000
760.694275	216.000000
760.731445	210.000000
760.768555	214.000000
760.805664	219.000000
760.842834	214.000000
760.879944	215.000000
760.917114	215.000000
760.954285	212.000000
760.991394	206.000000
761.028564	223.000000
761.065674	215.000000
761.102783	213.000000
761.139954	223.000000
761.177124	223.000000
761.214172	226.000000
761.251343	218.000000
761.288452	217.000000
761.325562	221.000000
761.362732	215.000000
761.399841	220.000000
761.436951	222.000000
761.474121	219.000000
761.511169	222.000000
761.548340	224.000000
761.585449	224.000000
761.622559	226.000000
761.659668	223.000000
761.696838	226.000000
761.733887	229.000000
761.771057	224.000000
761.808167	222.000000
761.845276	226.000000
761.882385	240.000000
761.919434	225.000000
761.956604	244.000000
761.993713	222.000000
762.030762	234.000000
762.067871	223.000000
762.105042	229.000000
762.142090	233.000000
762.179199	227.000000
762.216309	234.000000
762.253418	242.000000
762.290527	236.000000
762.327637	238.000000
762.364685	226.000000
762.401794	239.000000
762.438904	237.000000
762.475952	232.000000
762.513062	223.000000
762.550110	234.000000
762.587219	239.000000
762.624329	237.000000
762.661377	235.000000
762.698486	241.000000
762.735596	233.000000
762.772644	236.000000
762.809753	230.000000
762.846863	233.000000
762.883911	246.000000
762.921021	241.000000
762.958069	233.000000
762.995117	245.000000
763.032227	248.000000
763.069336	240.000000
763.106323	237.000000
763.143433	236.000000
763.180481	246.000000
763.217590	246.000000
763.254639	240.000000
763.291687	238.000000
763.328735	247.000000
763.365845	243.000000
763.402893	237.000000
763.439941	239.000000
763.477051	249.000000
763.514038	254.000000
763.551147	246.000000
763.588196	249.000000
763.625244	249.000000
763.662292	258.000000
763.699402	259.000000
763.736389	244.000000
763.773499	256.000000
763.810486	249.000000
763.847534	252.000000
763.884644	252.000000
763.921631	253.000000
763.958679	259.000000
763.995728	257.000000
764.032776	263.000000
764.069824	250.000000
764.106873	255.000000
764.143860	266.000000
764.180969	248.000000
764.218018	258.000000
764.255005	253.000000
764.292053	257.000000
764.329102	265.000000
764.366089	266.000000
764.403137	265.000000
764.440125	259.000000
764.477173	267.000000
764.514221	272.000000
764.551208	262.000000
764.588257	256.000000
764.625305	258.000000
764.662292	270.000000
764.699341	271.000000
764.736389	266.000000
764.773376	281.000000
764.810425	273.000000
764.847473	280.000000
764.884399	277.000000
764.921448	293.000000
764.958435	285.000000
764.995483	268.000000
765.032532	291.000000
765.069458	273.000000
765.106506	273.000000
765.143555	273.000000
765.180481	278.000000
765.217529	291.000000
765.254578	273.000000
765.291504	282.000000
765.328552	284.000000
765.365540	277.000000
765.402527	294.000000
765.439575	282.000000
765.476501	275.000000
765.513550	276.000000
765.550537	282.000000
765.587463	288.000000
765.624512	275.000000
765.661499	278.000000
765.698486	285.000000
765.735474	282.000000
765.772461	281.000000
765.809448	292.000000
765.846436	286.000000
765.883423	297.000000
765.920410	287.000000
765.957397	285.000000
765.994385	292.000000
766.031311	299.000000
766.068359	292.000000
766.105286	292.000000
766.142273	294.000000
766.179260	288.000000
766.216187	286.000000
766.253174	285.000000
766.290161	288.000000
766.327148	297.000000
766.364136	295.000000
766.401123	318.000000
766.438049	295.000000
766.475037	311.000000
766.512024	306.000000
766.548950	322.000000
766.585937	319.000000
766.622864	313.000000
766.659790	316.000000
766.696777	304.000000
766.733704	316.000000
766.770691	313.000000
766.807678	338.000000
766.844604	325.000000
766.881531	323.000000
766.918518	329.000000
766.955444	328.000000
766.992432	328.000000
767.029358	327.000000
767.066284	332.000000
767.103271	327.000000
767.140198	366.000000
767.177124	346.000000
767.214050	335.000000
767.251038	341.000000
767.287964	333.000000
767.324890	333.000000
767.361816	338.000000
767.398743	349.000000
767.435730	335.000000
767.472595	347.000000
767.509583	349.000000
767.546509	341.000000
767.583374	343.000000
767.620361	337.000000
767.657288	349.000000
767.694214	350.000000
767.731140	343.000000
767.768066	343.000000
767.804993	356.000000
767.841919	345.000000
767.878845	355.000000
767.915710	358.000000
767.952698	347.000000
767.989563	356.000000
768.026489	356.000000
768.063416	357.000000
768.100281	350.000000
768.137207	359.000000
768.174133	361.000000
768.211060	368.000000
768.247986	361.000000
768.284912	362.000000
768.321777	363.000000
768.358704	363.000000
768.395630	366.000000
768.432495	361.000000
768.469421	367.000000
768.506348	380.000000
768.543152	377.000000
768.580078	372.000000
768.616943	376.000000
768.653870	383.000000
768.690796	382.000000
768.727661	373.000000
768.764587	376.000000
768.801453	372.000000
768.838318	384.000000
768.875244	383.000000
768.912109	398.000000
768.948975	388.000000
768.985901	395.000000
769.022766	389.000000
769.059631	400.000000
769.096558	387.000000
769.133362	392.000000
769.170288	389.000000
769.207214	396.000000
769.244019	401.000000
769.280945	396.000000
769.317810	412.000000
769.354675	406.000000
769.391541	409.000000
769.428406	409.000000
769.465271	415.000000
769.502136	401.000000
769.539062	409.000000
769.575867	414.000000
769.612732	410.000000
769.649597	422.000000
769.686462	417.000000
769.723328	419.000000
769.760193	417.000000
769.797058	421.000000
769.833923	427.000000
769.870728	438.000000
769.907593	420.000000
769.944519	424.000000
769.981323	427.000000
770.018188	426.000000
770.055054	427.000000
770.091858	425.000000
770.128723	443.000000
770.165588	442.000000
770.202393	428.000000
770.239258	448.000000
770.276062	435.000000
770.312927	439.000000
770.349792	447.000000
770.386597	439.000000
770.423462	448.000000
770.460327	460.000000
770.497131	443.000000
770.533997	445.000000
770.570862	457.000000
770.607605	452.000000
770.644470	451.000000
770.681335	455.000000
770.718140	453.000000
770.754944	461.000000
770.791809	455.000000
770.828613	457.000000
770.865479	453.000000
770.902222	468.000000
770.939087	457.000000
770.975952	449.000000
771.012695	451.000000
771.049561	477.000000
771.086365	459.000000
771.123169	458.000000
771.159973	464.000000
771.196838	462.000000
771.233582	466.000000
771.270447	470.000000
771.307251	477.000000
771.344055	464.000000
771.380859	472.000000
771.417664	464.000000
771.454468	486.000000
771.491272	476.000000
771.528076	481.000000
771.564880	474.000000
771.601685	482.000000
771.638428	479.000000
771.675293	477.000000
771.712097	470.000000
771.748840	487.000000
771.785645	474.000000
771.822449	487.000000
771.859253	492.000000
771.896057	494.000000
771.932861	504.000000
771.969604	507.000000
772.006409	488.000000
772.043213	501.000000
772.079956	509.000000
772.116760	497.000000
772.153503	504.000000
772.190308	525.000000
772.227112	517.000000
772.263855	506.000000
772.300659	518.000000
772.337463	523.000000
772.374207	516.000000
772.411011	512.000000
772.447754	523.000000
772.484497	534.000000
772.521301	518.000000
772.558105	521.000000
772.594849	521.000000
772.631592	546.000000
772.668396	532.000000
772.705139	534.000000
772.741882	541.000000
772.778625	542.000000
772.815430	555.000000
772.852173	554.000000
772.888916	570.000000
772.925720	565.000000
772.962463	575.000000
772.999207	562.000000
773.035950	569.000000
773.072754	577.000000
773.109436	577.000000
773.146240	567.000000
773.182922	568.000000
773.219727	576.000000
773.256470	570.000000
773.293152	561.000000
773.329956	584.000000
773.366699	583.000000
773.403381	573.000000
773.440186	576.000000
773.476929	589.000000
773.513611	578.000000
773.550354	589.000000
773.587158	591.000000
773.623840	583.000000
773.660583	587.000000
773.697327	600.000000
773.734009	600.000000
773.770813	615.000000
773.807495	592.000000
773.844238	605.000000
773.880981	610.000000
773.917664	601.000000
773.954407	615.000000
773.991150	609.000000
774.027832	609.000000
774.064575	611.000000
774.101318	608.000000
774.138000	612.000000
774.174744	625.000000
774.211487	633.000000
774.248108	629.000000
774.284851	633.000000
774.321594	632.000000
774.358276	626.000000
774.395020	637.000000
774.431702	658.000000
774.468384	645.000000
774.505127	652.000000
774.541809	657.000000
774.578491	658.000000
774.615234	657.000000
774.651917	647.000000
774.688599	666.000000
774.725342	677.000000
774.762024	657.000000
774.798706	663.000000
774.835449	648.000000
774.872070	655.000000
774.908813	672.000000
774.945496	674.000000
774.982178	680.000000
775.018860	677.000000
775.055542	664.000000
775.092224	667.000000
775.128967	694.000000
775.165588	703.000000
775.202271	695.000000
775.239014	693.000000
775.275635	696.000000
775.312317	670.000000
775.349060	699.000000
775.385681	708.000000
775.422363	704.000000
775.459045	701.000000
775.495667	705.000000
775.532410	697.000000
775.569092	704.000000
775.605713	720.000000
775.642395	721.000000
775.679016	711.000000
775.715698	720.000000
775.752380	704.000000
775.789001	699.000000
775.825684	705.000000
775.862366	720.000000
775.898987	723.000000
775.935669	698.000000
775.972351	722.000000
776.008972	712.000000
776.045654	725.000000
776.082336	746.000000
776.118958	733.000000
776.155640	726.000000
776.192322	741.000000
776.228882	729.000000
776.265564	737.000000
776.302185	734.000000
776.338867	756.000000
776.375488	733.000000
776.412109	740.000000
776.448792	742.000000
776.485413	752.000000
776.522034	752.000000
776.558716	748.000000
776.595337	749.000000
776.631958	735.000000
776.668579	738.000000
776.705261	743.000000
776.741882	746.000000
776.778503	747.000000
776.815186	749.000000
776.851746	763.000000
776.888367	743.000000
776.924988	752.000000
776.961609	744.000000
776.998291	756.000000
777.034851	754.000000
777.071472	763.000000
777.108154	753.000000
777.144714	773.000000
777.181335	760.000000
777.218018	767.000000
777.254578	786.000000
777.291199	788.000000
777.327759	773.000000
777.364380	793.000000
777.401062	799.000000
777.437622	817.000000
777.474243	809.000000
777.510864	828.000000
777.547424	827.000000
777.584045	831.000000
777.620667	826.000000
777.657227	820.000000
777.693848	823.000000
777.730469	836.000000
777.767029	832.000000
777.803650	847.000000
777.840271	824.000000
777.876831	821.000000
777.913452	849.000000
777.950012	840.000000
777.986633	828.000000
778.023193	830.000000
778.059753	830.000000
778.096375	836.000000
778.132996	838.000000
778.169556	838.000000
778.206116	834.000000
778.242737	834.000000
778.279297	843.000000
778.315857	851.000000
778.352478	860.000000
778.389038	867.000000
778.425598	861.000000
778.462219	867.000000
778.498718	866.000000
778.535339	878.000000
778.571838	884.000000
778.608459	889.000000
778.645020	872.000000
778.681580	889.000000
778.718140	880.000000
778.754761	885.000000
778.791260	887.000000
778.827881	891.000000
778.864441	886.000000
778.900940	893.000000
778.937561	903.000000
778.974121	892.000000
779.010620	889.000000
779.047241	900.000000
779.083801	910.000000
779.120300	912.000000
779.156860	930.000000
779.193359	921.000000
779.229980	942.000000
779.266541	953.000000
779.303040	950.000000
779.339600	937.000000
779.376160	945.000000
779.412659	964.000000
779.449219	970.000000
779.485779	963.000000
779.522278	945.000000
779.558838	961.000000
779.595398	952.000000
779.631897	955.000000
779.668457	946.000000
779.705017	961.000000
779.741516	951.000000
779.778076	943.000000
779.814575	945.000000
779.851074	952.000000
779.887634	955.000000
779.924133	961.000000
779.960693	961.000000
779.997253	952.000000
780.033691	953.000000
780.070251	949.000000
780.106812	986.000000
780.143250	979.000000
780.179810	991.000000
780.216370	989.000000
780.252808	978.000000
780.289368	988.000000
780.325867	1021.000000
780.362366	1007.000000
780.398865	1035.000000
780.435364	1039.000000
780.471863	1040.000000
780.508423	1015.000000
780.544861	1029.000000
780.581421	1041.000000
780.617920	1050.000000
780.654419	1048.000000
780.690918	1051.000000
780.727417	1026.000000
780.763916	1020.000000
780.800415	1046.000000
780.836914	1037.000000
780.873352	1063.000000
780.909912	1050.000000
780.946411	1038.000000
780.982849	1044.000000
781.019348	1065.000000
781.055786	1040.000000
781.092346	1046.000000
781.128845	1061.000000
781.165283	1059.000000
781.201782	1050.000000
781.238281	1046.000000
781.274719	1059.000000
781.311218	1064.000000
781.347717	1099.000000
781.384155	1067.000000
781.420654	1075.000000
781.457092	1086.000000
781.493591	1090.000000
781.530090	1089.000000
781.566528	1094.000000
781.602966	1079.000000
781.639465	1081.000000
781.675903	1063.000000
781.712402	1043.000000
781.748901	1017.000000
781.785278	964.000000
781.821777	869.000000
781.858276	783.000000
781.894714	707.000000
781.931152	589.000000
781.967651	529.000000
782.004089	458.000000
782.040527	422.000000
782.076965	373.000000
782.113403	335.000000
782.149902	306.000000
782.186340	275.000000
782.222778	273.000000
782.259277	247.000000
782.295654	249.000000
782.332092	247.000000
782.368591	248.000000
782.404968	258.000000
782.441467	299.000000
782.477905	385.000000
782.514282	536.000000
782.550781	705.000000
782.587219	818.000000
782.623596	854.000000
782.660095	807.000000
782.696472	720.000000
782.732910	649.000000
782.769348	559.000000
782.805786	509.000000
782.842224	452.000000
782.878662	398.000000
782.915039	360.000000
782.951477	329.000000
782.987915	295.000000
783.024292	282.000000
783.060730	258.000000
783.097168	248.000000
783.133545	246.000000
783.169983	254.000000
783.206421	263.000000
783.242798	283.000000
783.279236	343.000000
783.315613	483.000000
783.352051	664.000000
783.388489	851.000000
783.424866	976.000000
783.461304	1047.000000
783.497681	1083.000000
783.534058	1107.000000
783.570496	1114.000000
783.606934	1125.000000
783.643250	1141.000000
783.679687	1125.000000
783.716125	1117.000000
783.752441	1143.000000
783.788879	1155.000000
783.825317	1161.000000
783.861633	1179.000000
783.898071	1187.000000
783.934448	1184.000000
783.970825	1207.000000
784.007263	1195.000000
784.043579	1229.000000
784.080017	1250.000000
784.116394	1212.000000
784.152710	1219.000000
784.189148	1220.000000
784.225525	1211.000000
784.261902	1234.000000
784.298279	1233.000000
784.334656	1223.000000
784.371033	1190.000000
784.407410	1184.000000
784.443787	1174.000000
784.480164	1175.000000
784.516541	1189.000000
784.552856	1190.000000
784.589233	1184.000000
784.625610	1165.000000
784.661987	1188.000000
784.698364	1198.000000
784.734741	1196.000000
784.771057	1223.000000
784.807434	1224.000000
784.843811	1215.000000
784.880127	1207.000000
784.916504	1229.000000
784.952881	1261.000000
784.989197	1269.000000
785.025574	1289.000000
785.061951	1307.000000
785.098267	1302.000000
785.134644	1311.000000
785.170959	1322.000000
785.207275	1368.000000
785.243652	1387.000000
785.279968	1374.000000
785.316345	1330.000000
785.352722	1311.000000
785.388977	1319.000000
785.425354	1293.000000
785.461731	1294.000000
785.498047	1293.000000
785.534363	1247.000000
785.570679	1215.000000
785.606995	1190.000000
785.643372	1189.000000
785.679687	1211.000000
785.716003	1210.000000
785.752380	1177.000000
785.788635	1163.000000
785.825012	1155.000000
785.861328	1162.000000
785.897644	1176.000000
785.933960	1216.000000
785.970337	1243.000000
786.006592	1270.000000
786.042908	1267.000000
786.079285	1279.000000
786.115540	1333.000000
786.151855	1376.000000
786.188171	1422.000000
786.224487	1437.000000
786.260803	1445.000000
786.297119	1474.000000
786.333435	1461.000000
786.369751	1482.000000
786.406006	1492.000000
786.442322	1481.000000
786.478638	1453.000000
786.514954	1416.000000
786.551270	1354.000000
786.587585	1349.000000
786.623840	1318.000000
786.660156	1323.000000
786.696472	1277.000000
786.732727	1264.000000
786.769043	1221.000000
786.805298	1199.000000
786.841614	1195.000000
786.877930	1238.000000
786.914124	1227.000000
786.950439	1244.000000
786.986755	1254.000000
787.023010	1252.000000
787.059326	1241.000000
787.095642	1296.000000
787.131836	1347.000000
787.168152	1340.000000
787.204468	1371.000000
787.240723	1394.000000
787.276978	1395.000000
787.313293	1403.000000
787.349548	1435.000000
787.385803	1470.000000
787.422058	1484.000000
787.458313	1469.000000
787.494629	1436.000000
787.530823	1427.000000
787.567139	1430.000000
787.603455	1428.000000
787.639648	1412.000000
787.675903	1398.000000
787.712219	1364.000000
787.748413	1374.000000
787.784729	1355.000000
787.820984	1323.000000
787.857178	1327.000000
787.893494	1305.000000
787.929749	1292.000000
787.965942	1282.000000
788.002258	1295.000000
788.038452	1309.000000
788.074707	1310.000000
788.110962	1338.000000
788.147217	1334.000000
788.183472	1326.000000
788.219727	1321.000000
788.255920	1301.000000
788.292175	1321.000000
788.328430	1333.000000
788.364624	1344.000000
788.400879	1356.000000
788.437134	1345.000000
788.473328	1330.000000
788.509583	1332.000000
788.545837	1339.000000
788.582031	1358.000000
788.618286	1363.000000
788.654480	1361.000000
788.690735	1364.000000
788.726990	1386.000000
788.763184	1389.000000
788.799377	1401.000000
788.835632	1413.000000
788.871826	1439.000000
788.908081	1428.000000
788.944336	1420.000000
788.980469	1412.000000
789.016724	1411.000000
789.052979	1426.000000
789.089111	1413.000000
789.125366	1399.000000
789.161621	1379.000000
789.197754	1385.000000
789.234009	1337.000000
789.270142	1330.000000
789.306396	1340.000000
789.342590	1344.000000
789.378784	1329.000000
789.414978	1319.000000
789.451233	1314.000000
789.487366	1299.000000
789.523621	1316.000000
789.559814	1322.000000
789.595947	1332.000000
789.632202	1349.000000
789.668335	1326.000000
789.704529	1334.000000
789.740784	1362.000000
789.776917	1371.000000
789.813110	1389.000000
789.849304	1427.000000
789.885498	1413.000000
789.921692	1398.000000
789.957886	1403.000000
789.994019	1403.000000
790.030212	1408.000000
790.066406	1448.000000
790.102539	1452.000000
790.138733	1422.000000
790.174927	1406.000000
790.211060	1401.000000
790.247253	1385.000000
790.283386	1395.000000
790.319580	1389.000000
790.355774	1365.000000
790.391907	1296.000000
790.428101	1191.000000
790.464294	1056.000000
790.500427	908.000000
790.536621	743.000000
790.572754	631.000000
790.608887	560.000000
790.645081	597.000000
790.681274	748.000000
790.717346	968.000000
790.753540	1167.000000
790.789734	1309.000000
790.825867	1367.000000
790.862000	1377.000000
790.898132	1360.000000
790.934265	1335.000000
790.970459	1332.000000
791.006592	1371.000000
791.042725	1368.000000
791.078918	1351.000000
791.114990	1326.000000
791.151184	1304.000000
791.187317	1295.000000
791.223389	1311.000000
791.259583	1328.000000
791.295715	1350.000000
791.331848	1349.000000
791.367981	1338.000000
791.404114	1327.000000
791.440247	1355.000000
791.476379	1395.000000
791.512451	1380.000000
791.548584	1416.000000
791.584778	1419.000000
791.620850	1399.000000
791.656982	1408.000000
791.693115	1401.000000
791.729187	1412.000000
791.765381	1445.000000
791.801514	1441.000000
791.837585	1418.000000
791.873718	1425.000000
791.909851	1433.000000
791.945923	1450.000000
791.982056	1445.000000
792.018188	1464.000000
792.054260	1466.000000
792.090393	1471.000000
792.126465	1441.000000
792.162598	1444.000000
792.198669	1441.000000
792.234741	1466.000000
792.270874	1462.000000
792.307007	1452.000000
792.343079	1423.000000
792.379150	1436.000000
792.415283	1393.000000
792.451355	1401.000000
792.487488	1405.000000
792.523560	1420.000000
792.559631	1413.000000
792.595764	1368.000000
792.631836	1363.000000
792.667908	1377.000000
792.703979	1386.000000
792.740051	1388.000000
792.776184	1409.000000
792.812256	1376.000000
792.848328	1365.000000
792.884399	1379.000000
792.920471	1364.000000
792.956543	1411.000000
792.992615	1408.000000
793.028748	1398.000000
793.064758	1390.000000
793.100830	1417.000000
793.136963	1400.000000
793.172974	1414.000000
793.209045	1414.000000
793.245178	1425.000000
793.281189	1414.000000
793.317261	1395.000000
793.353271	1384.000000
793.389404	1401.000000
793.425476	1393.000000
793.461487	1390.000000
793.497559	1421.000000
793.533630	1411.000000
793.569641	1391.000000
793.605713	1365.000000
793.641785	1356.000000
793.677795	1373.000000
793.713867	1379.000000
793.749878	1389.000000
793.785950	1379.000000
793.822021	1412.000000
793.858032	1364.000000
793.894104	1383.000000
793.930176	1395.000000
793.966187	1414.000000
794.002258	1398.000000
794.038269	1401.000000
794.074280	1379.000000
794.110352	1395.000000
794.146423	1361.000000
794.182373	1386.000000
794.218445	1411.000000
794.254517	1418.000000
794.290466	1395.000000
794.326538	1389.000000
794.362549	1371.000000
794.398560	1366.000000
794.434631	1360.000000
794.470581	1338.000000
794.506653	1324.000000
794.542664	1308.000000
794.578674	1298.000000
794.614685	1303.000000
794.650757	1287.000000
794.686707	1320.000000
794.722778	1325.000000
794.758789	1326.000000
794.794739	1333.000000
794.830811	1329.000000
794.866821	1304.000000
794.902771	1328.000000
794.938843	1344.000000
794.974792	1355.000000
795.010803	1358.000000
795.046814	1351.000000
795.082825	1332.000000
795.118835	1340.000000
795.154846	1319.000000
795.190796	1330.000000
795.226807	1320.000000
795.262817	1339.000000
795.298767	1317.000000
795.334778	1302.000000
795.370850	1294.000000
795.406799	1282.000000
795.442810	1277.000000
795.478821	1288.000000
795.514709	1283.000000
795.550720	1277.000000
795.586670	1238.000000
795.622681	1220.000000
795.658691	1226.000000
795.694641	1261.000000
795.730652	1243.000000
795.766663	1245.000000
795.802551	1237.000000
795.838562	1240.000000
795.874573	1221.000000
795.910522	1238.000000
795.946472	1246.000000
795.982483	1249.000000
796.018433	1218.000000
796.054382	1227.000000
796.090393	1212.000000
796.126282	1219.000000
796.162292	1228.000000
796.198242	1265.000000
796.234192	1270.000000
796.270203	1259.000000
796.306091	1246.000000
796.342041	1257.000000
796.378052	1243.000000
796.413940	1260.000000
796.449951	1261.000000
796.485901	1250.000000
796.521790	1236.000000
796.557800	1240.000000
796.593689	1245.000000
796.629639	1254.000000
796.665649	1262.000000
796.701599	1250.000000
796.737488	1267.000000
796.773437	1245.000000
796.809387	1235.000000
796.845337	1267.000000
796.881287	1266.000000
796.917175	1275.000000
796.953125	1288.000000
796.989075	1284.000000
797.024963	1273.000000
797.060913	1265.000000
797.096863	1267.000000
797.132751	1269.000000
797.168701	1251.000000
797.204590	1253.000000
797.240540	1217.000000
797.276489	1198.000000
797.312439	1186.000000
797.348328	1211.000000
797.384277	1222.000000
797.420166	1234.000000
797.456055	1210.000000
797.492004	1199.000000
797.527893	1188.000000
797.563843	1192.000000
797.599731	1205.000000
797.635620	1224.000000
797.671570	1231.000000
797.707520	1208.000000
797.743347	1192.000000
797.779297	1197.000000
797.815125	1192.000000
797.851074	1221.000000
797.887024	1246.000000
797.922913	1237.000000
797.958801	1220.000000
797.994690	1193.000000
798.030579	1202.000000
798.066467	1210.000000
798.102356	1194.000000
798.138245	1216.000000
798.174133	1202.000000
798.210083	1205.000000
798.245911	1196.000000
798.281799	1175.000000
798.317749	1177.000000
798.353577	1198.000000
798.389465	1196.000000
798.425293	1187.000000
798.461243	1180.000000
798.497131	1174.000000
798.532959	1174.000000
798.568848	1209.000000
798.604736	1215.000000
798.640564	1198.000000
798.676453	1181.000000
798.712402	1169.000000
798.748230	1155.000000
798.784119	1160.000000
798.820007	1185.000000
798.855835	1184.000000
798.891724	1183.000000
798.927551	1167.000000
798.963379	1176.000000
798.999268	1165.000000
799.035095	1172.000000
799.070984	1168.000000
799.106873	1177.000000
799.142700	1176.000000
799.178528	1152.000000
799.214417	1155.000000
799.250244	1154.000000
799.286133	1150.000000
799.321960	1176.000000
799.357788	1183.000000
799.393677	1160.000000
799.429504	1153.000000
799.465332	1164.000000
799.501221	1138.000000
799.537048	1159.000000
799.572876	1165.000000
799.608704	1155.000000
799.644531	1165.000000
799.680359	1139.000000
799.716248	1157.000000
799.752014	1163.000000
799.787903	1165.000000
799.823730	1164.000000
799.859558	1160.000000
799.895386	1147.000000
799.931213	1101.000000
799.967041	1112.000000
800.002869	1107.000000
800.038696	1141.000000
800.074463	1125.000000
800.110352	1121.000000
800.146179	1096.000000
800.181946	1097.000000
800.217773	1099.000000
800.253540	1111.000000
800.289429	1115.000000
800.325256	1106.000000
800.361023	1083.000000
800.396851	1084.000000
800.432678	1073.000000
800.468445	1068.000000
800.504272	1080.000000
800.540100	1094.000000
800.575867	1073.000000
800.611694	1087.000000
800.647461	1071.000000
800.683289	1040.000000
800.719116	1058.000000
800.754883	1056.000000
800.790649	1040.000000
800.826477	1033.000000
800.862244	1050.000000
800.898071	1018.000000
800.933838	1015.000000
800.969604	1021.000000
801.005432	1026.000000
801.041199	1043.000000
801.076965	1033.000000
801.112793	1016.000000
801.148560	1002.000000
801.184326	986.000000
801.220154	988.000000
801.255859	974.000000
801.291687	986.000000
801.327454	970.000000
801.363281	975.000000
801.398987	963.000000
801.434814	962.000000
801.470520	970.000000
801.506287	970.000000
801.542114	951.000000
801.577820	956.000000
801.613647	939.000000
801.649414	949.000000
801.685120	948.000000
801.720886	956.000000
801.756714	940.000000
801.792419	944.000000
801.828186	943.000000
801.863892	944.000000
801.899719	936.000000
801.935486	938.000000
801.971252	929.000000
802.006958	937.000000
802.042725	927.000000
802.078430	927.000000
802.114197	921.000000
802.149963	949.000000
802.185669	916.000000
802.221436	929.000000
802.257202	939.000000
802.292908	928.000000
802.328674	923.000000
802.364441	925.000000
802.400146	917.000000
802.435913	920.000000
802.471558	917.000000
802.507324	902.000000
802.543091	913.000000
802.578796	919.000000
802.614502	910.000000
802.650269	928.000000
802.685974	906.000000
802.721741	922.000000
802.757446	926.000000
802.793152	913.000000
802.828918	909.000000
802.864624	920.000000
802.900330	918.000000
802.936035	911.000000
802.971802	921.000000
803.007446	906.000000
803.043213	889.000000
803.078857	896.000000
803.114624	863.000000
803.150330	873.000000
803.185974	872.000000
803.221741	865.000000
803.257446	862.000000
803.293152	875.000000
803.328857	858.000000
803.364563	858.000000
803.400208	858.000000
803.435974	859.000000
803.471680	859.000000
803.507324	837.000000
803.543030	841.000000
803.578735	833.000000
803.614441	831.000000
803.650146	848.000000
803.685791	830.000000
803.721497	850.000000
803.757202	826.000000
803.792847	830.000000
803.828552	826.000000
803.864258	824.000000
803.899902	816.000000
803.935608	803.000000
803.971313	802.000000
804.006958	801.000000
804.042664	797.000000
804.078308	800.000000
804.113953	792.000000
804.149658	810.000000
804.185364	810.000000
804.221008	809.000000
804.256714	795.000000
804.292297	782.000000
804.328003	775.000000
804.363708	784.000000
804.399292	783.000000
804.434998	786.000000
804.470703	766.000000
804.506287	771.000000
804.541992	760.000000
804.577637	767.000000
804.613281	761.000000
804.648926	769.000000
804.684570	767.000000
804.720215	757.000000
804.755920	753.000000
804.791565	749.000000
804.827209	749.000000
804.862854	749.000000
804.898437	747.000000
804.934143	757.000000
804.969788	751.000000
805.005371	757.000000
805.041077	756.000000
805.076721	745.000000
805.112305	743.000000
805.147949	742.000000
805.183655	731.000000
805.219238	751.000000
805.254883	729.000000
805.290466	737.000000
805.326111	734.000000
805.361755	741.000000
805.397400	739.000000
805.432983	751.000000
805.468628	744.000000
805.504211	733.000000
805.539856	731.000000
805.575500	740.000000
805.611084	723.000000
805.646729	731.000000
805.682373	718.000000
805.717957	730.000000
805.753601	739.000000
805.789246	720.000000
805.824768	729.000000
805.860413	749.000000
805.895996	719.000000
805.931641	713.000000
805.967224	722.000000
806.002869	709.000000
806.038452	725.000000
806.074036	716.000000
806.109619	714.000000
806.145264	710.000000
806.180847	710.000000
806.216431	701.000000
806.252014	701.000000
806.287659	700.000000
806.323181	705.000000
806.358826	696.000000
806.394409	685.000000
806.429993	686.000000
806.465576	689.000000
806.501160	676.000000
806.536743	670.000000
806.572327	687.000000
806.607910	682.000000
806.643494	695.000000
806.679077	681.000000
806.714661	661.000000
806.750244	665.000000
806.785828	659.000000
806.821350	662.000000
806.856934	669.000000
806.892517	650.000000
806.928101	647.000000
806.963684	660.000000
806.999268	650.000000
807.034790	634.000000
807.070374	631.000000
807.105896	635.000000
807.141479	628.000000
807.177063	649.000000
807.212585	624.000000
807.248169	625.000000
807.283752	630.000000
807.319275	625.000000
807.354858	638.000000
807.390381	629.000000
807.425903	627.000000
807.461487	621.000000
807.497070	607.000000
807.532593	616.000000
807.568115	602.000000
807.603699	604.000000
807.639221	605.000000
807.674744	600.000000
807.710266	610.000000
807.745850	615.000000
807.781372	601.000000
807.816895	600.000000
807.852417	609.000000
807.888000	598.000000
807.923523	592.000000
807.959045	589.000000
807.994629	587.000000
808.030090	591.000000
808.065613	597.000000
808.101135	593.000000
808.136658	597.000000
808.172241	594.000000
808.207764	590.000000
808.243225	568.000000
808.278809	581.000000
808.314270	597.000000
808.349792	570.000000
808.385315	573.000000
808.420837	581.000000
808.456360	576.000000
808.491882	585.000000
808.527344	579.000000
808.562866	585.000000
808.598389	573.000000
808.633850	560.000000
808.669434	562.000000
808.704895	565.000000
808.740417	580.000000
808.775940	563.000000
808.811462	550.000000
808.846924	559.000000
808.882385	548.000000
808.917847	544.000000
808.953369	550.000000
808.988892	543.000000
809.024353	551.000000
809.059875	551.000000
809.095398	547.000000
809.130798	539.000000
809.166321	537.000000
809.201843	529.000000
809.237305	520.000000
809.272766	541.000000
809.308228	531.000000
809.343750	523.000000
809.379211	531.000000
809.414734	529.000000
809.450134	531.000000
809.485657	513.000000
809.521118	513.000000
809.556580	517.000000
809.592102	514.000000
809.627502	506.000000
809.663025	503.000000
809.698486	507.000000
809.733887	509.000000
809.769409	501.000000
809.804871	487.000000
809.840271	497.000000
809.875793	494.000000
809.911194	504.000000
809.946655	487.000000
809.982178	480.000000
810.017639	499.000000
810.053040	492.000000
810.088501	478.000000
810.123901	480.000000
810.159424	481.000000
810.194885	481.000000
810.230286	493.000000
810.265747	480.000000
810.301208	479.000000
810.336609	478.000000
810.372070	467.000000
810.407532	465.000000
810.442932	475.000000
810.478394	474.000000
810.513794	478.000000
810.549255	473.000000
810.584717	481.000000
810.620117	466.000000
810.655518	469.000000
810.690979	461.000000
810.726379	470.000000
810.761841	451.000000
810.797302	463.000000
810.832642	455.000000
810.868103	463.000000
810.903564	451.000000
810.938904	457.000000
810.974365	446.000000
811.009827	459.000000
811.045166	450.000000
811.080627	444.000000
811.115967	445.000000
811.151428	450.000000
811.186829	441.000000
811.222229	444.000000
811.257629	439.000000
811.293091	434.000000
811.328430	446.000000
811.363892	446.000000
811.399292	442.000000
811.434631	443.000000
811.470093	441.000000
811.505493	430.000000
811.540833	442.000000
811.576294	445.000000
811.611694	437.000000
811.647034	420.000000
811.682434	424.000000
811.717773	431.000000
811.753235	443.000000
811.788635	433.000000
811.823975	441.000000
811.859375	434.000000
811.894775	425.000000
811.930115	430.000000
811.965515	426.000000
812.000916	430.000000
812.036255	419.000000
812.071655	431.000000
812.106995	419.000000
812.142395	425.000000
812.177795	427.000000
812.213196	419.000000
812.248474	423.000000
812.283875	411.000000
812.319214	415.000000
812.354614	410.000000
812.390015	410.000000
812.425293	405.000000
812.460693	410.000000
812.496094	409.000000
812.531433	403.000000
812.566772	412.000000
812.602173	401.000000
812.637451	400.000000
812.672852	403.000000
812.708191	406.000000
812.743530	401.000000
812.778931	392.000000
812.814270	393.000000
812.849609	390.000000
812.884949	391.000000
812.920227	385.000000
812.955627	404.000000
812.990967	396.000000
813.026306	387.000000
813.061646	380.000000
813.096985	375.000000
813.132324	377.000000
813.167664	372.000000
813.203003	378.000000
813.238281	366.000000
813.273682	362.000000
813.308960	367.000000
813.344299	367.000000
813.379639	369.000000
813.414978	364.000000
813.450256	360.000000
813.485596	372.000000
813.520874	356.000000
813.556213	367.000000
813.591614	371.000000
813.626831	357.000000
813.662170	359.000000
813.697510	370.000000
813.732788	357.000000
813.768127	368.000000
813.803467	363.000000
813.838745	353.000000
813.874084	354.000000
813.909363	357.000000
813.944641	356.000000
813.979980	345.000000
814.015320	352.000000
814.050598	355.000000
814.085876	348.000000
814.121155	353.000000
814.156494	343.000000
814.191772	352.000000
814.227051	340.000000
814.262390	348.000000
814.297668	347.000000
814.332947	347.000000
814.368225	335.000000
814.403564	346.000000
814.438782	339.000000
814.474121	338.000000
814.509338	339.000000
814.544617	345.000000
814.579956	328.000000
814.615173	346.000000
814.650513	341.000000
814.685791	333.000000
814.721008	329.000000
814.756348	337.000000
814.791626	332.000000
814.826843	342.000000
814.862122	327.000000
814.897400	331.000000
814.932678	328.000000
814.967957	330.000000
815.003235	328.000000
815.038452	317.000000
815.073730	321.000000
815.108948	331.000000
815.144226	324.000000
815.179504	330.000000
815.214722	318.000000
815.250000	315.000000
815.285278	323.000000
815.320496	317.000000
815.355774	322.000000
815.391052	322.000000
815.426270	320.000000
815.461487	319.000000
815.496765	313.000000
815.531982	310.000000
815.567261	311.000000
815.602539	310.000000
815.637695	307.000000
815.672974	310.000000
815.708191	313.000000
815.743408	310.000000
815.778687	305.000000
815.813904	310.000000
815.849121	302.000000
815.884399	295.000000
815.919556	298.000000
815.954834	300.000000
815.990051	306.000000
816.025269	307.000000
816.060486	300.000000
816.095703	299.000000
816.130920	304.000000
816.166199	298.000000
816.201416	302.000000
816.236572	299.000000
816.271851	295.000000
816.307007	294.000000
816.342224	284.000000
816.377441	291.000000
816.412659	284.000000
816.447876	295.000000
816.483093	296.000000
816.518250	291.000000
816.553467	286.000000
816.588745	289.000000
816.623901	285.000000
816.659119	271.000000
816.694275	286.000000
816.729492	285.000000
816.764709	313.000000
816.799927	275.000000
816.835083	286.000000
816.870300	280.000000
816.905457	278.000000
816.940674	285.000000
816.975830	277.000000
817.010986	271.000000
817.046204	277.000000
817.081421	271.000000
817.116577	271.000000
817.151733	279.000000
817.186951	285.000000
817.222107	276.000000
817.257324	278.000000
817.292419	277.000000
817.327637	273.000000
817.362854	277.000000
817.398010	271.000000
817.433167	273.000000
817.468323	269.000000
817.503479	271.000000
817.538635	279.000000
817.573853	272.000000
817.608948	270.000000
817.644165	270.000000
817.679321	269.000000
817.714478	267.000000
817.749634	272.000000
817.784790	279.000000
817.819946	271.000000
817.855103	251.000000
817.890198	263.000000
817.925415	257.000000
817.960571	263.000000
817.995667	269.000000
818.030823	261.000000
818.066040	261.000000
818.101135	262.000000
818.136292	262.000000
818.171448	260.000000
818.206543	266.000000
818.241699	264.000000
818.276855	266.000000
818.311951	255.000000
818.347107	254.000000
818.382263	262.000000
818.417358	266.000000
818.452515	265.000000
818.487610	267.000000
818.522766	255.000000
818.557922	264.000000
818.593018	258.000000
818.628113	258.000000
818.663269	249.000000
818.698364	259.000000
818.733521	256.000000
818.768677	259.000000
818.803711	252.000000
818.838867	255.000000
818.874023	248.000000
818.909058	254.000000
818.944214	250.000000
818.979370	258.000000
819.014404	255.000000
819.049561	243.000000
819.084595	250.000000
819.119751	246.000000
819.154846	252.000000
819.189941	251.000000
819.225037	246.000000
819.260193	240.000000
819.295227	239.000000
819.330322	238.000000
819.365479	239.000000
819.400513	273.000000
819.435608	229.000000
819.470764	233.000000
819.505798	235.000000
819.540894	237.000000
819.575989	237.000000
819.611084	239.000000
819.646179	247.000000
819.681213	235.000000
819.716309	234.000000
819.751404	241.000000
819.786438	244.000000
819.821533	231.000000
819.856628	239.000000
819.891663	239.000000
819.926758	244.000000
819.961853	237.000000
819.996887	234.000000
820.031982	236.000000
820.067017	234.000000
820.102112	262.000000
820.137207	234.000000
820.172302	250.000000
820.207275	230.000000
820.242371	228.000000
820.277405	234.000000
820.312500	231.000000
820.347534	234.000000
820.382568	240.000000
820.417664	225.000000
820.452759	226.000000
820.487732	228.000000
820.522827	228.000000
820.557861	228.000000
820.592896	235.000000
820.627930	234.000000
820.662964	228.000000
820.698059	227.000000
820.733093	231.000000
820.768127	231.000000
820.803162	231.000000
820.838196	222.000000
820.873230	225.000000
820.908264	229.000000
820.943298	228.000000
820.978333	234.000000
821.013367	233.000000
821.048401	230.000000
821.083435	229.000000
821.118469	214.000000
821.153503	234.000000
821.188477	221.000000
821.223511	219.000000
821.258484	224.000000
821.293579	224.000000
821.328613	214.000000
821.363647	224.000000
821.398621	214.000000
821.433655	220.000000
821.468628	233.000000
821.503662	220.000000
821.538696	226.000000
821.573669	221.000000
821.608704	222.000000
821.643677	219.000000
821.678650	222.000000
821.713684	224.000000
821.748718	214.000000
821.783691	222.000000
821.818726	215.000000
821.853638	224.000000
821.888672	221.000000
821.923706	216.000000
821.958618	215.000000
821.993652	214.000000
822.028687	217.000000
822.063599	228.000000
822.098633	218.000000
822.133667	214.000000
822.168579	217.000000
822.203613	213.000000
822.238586	212.000000
822.273560	222.000000
822.308533	213.000000
822.343567	215.000000
822.378479	212.000000
822.413452	214.000000
822.448425	208.000000
822.483398	214.000000
822.518372	215.000000
822.553345	213.000000
822.588318	222.000000
822.623291	212.000000
822.658203	212.000000
822.693237	210.000000
822.728210	213.000000
822.763123	213.000000
822.798096	207.000000
822.833069	207.000000
822.867981	210.000000
822.902954	205.000000
822.937927	216.000000
822.972900	219.000000
823.007874	202.000000
823.042725	208.000000
823.077698	221.000000
823.112671	206.000000
823.147583	206.000000
823.182556	210.000000
823.217529	215.000000
823.252441	206.000000
823.287415	220.000000
823.322388	209.000000
823.357239	206.000000
823.392212	208.000000
823.427185	209.000000
823.462097	205.000000
823.497009	205.000000
823.531982	200.000000
823.566895	206.000000
823.601807	199.000000
823.636719	204.000000
823.671631	208.000000
823.706604	202.000000
823.741455	206.000000
823.776428	198.000000
823.811340	206.000000
823.846252	211.000000
823.881165	211.000000
823.916138	205.000000
823.950989	215.000000
823.985901	204.000000
824.020813	203.000000
824.055725	205.000000
824.090637	197.000000
824.125610	207.000000
824.160461	206.000000
824.195374	207.000000
824.230225	205.000000
824.265198	198.000000
824.300110	197.000000
824.334961	212.000000
824.369873	198.000000
824.404785	203.000000
824.439636	207.000000
824.474548	192.000000
824.509460	195.000000
824.544312	201.000000
824.579224	207.000000
824.614075	203.000000
824.648987	197.000000
824.683899	199.000000
824.718811	199.000000
824.753662	202.000000
824.788574	206.000000
824.823364	199.000000
824.858276	197.000000
824.893188	208.000000
824.928040	209.000000
824.962952	200.000000
824.997803	204.000000
825.032654	198.000000
825.067566	199.000000
825.102417	195.000000
825.137268	202.000000
825.172119	196.000000
825.206970	194.000000
825.241882	196.000000
825.276733	196.000000
825.311646	196.000000
825.346436	196.000000
825.381348	192.000000
825.416138	201.000000
825.450989	195.000000
825.485901	186.000000
825.520691	183.000000
825.555542	188.000000
825.590454	197.000000
825.625244	189.000000
825.660095	205.000000
825.695007	199.000000
825.729797	192.000000
825.764648	194.000000
825.799438	193.000000
825.834290	197.000000
825.869202	186.000000
825.903992	199.000000
825.938843	195.000000
825.973694	190.000000
826.008484	207.000000
826.043335	194.000000
826.078186	188.000000
826.112976	202.000000
826.147827	204.000000
826.182678	205.000000
826.217468	183.000000
826.252319	198.000000
826.287109	192.000000
826.321899	203.000000
826.356750	192.000000
826.391541	189.000000
826.426392	193.000000
826.461182	195.000000
826.495972	187.000000
826.530823	180.000000
826.565613	192.000000
826.600403	185.000000
826.635254	195.000000
826.670044	183.000000
826.704834	183.000000
826.739685	184.000000
826.774475	198.000000
826.809265	187.000000
826.844055	188.000000
826.878906	199.000000
826.913635	196.000000
826.948425	189.000000
826.983215	194.000000
827.018005	190.000000
827.052856	184.000000
827.087585	190.000000
827.122375	182.000000
827.157227	189.000000
827.191956	200.000000
827.226746	186.000000
827.261536	192.000000
827.296265	181.000000
827.331116	192.000000
827.365906	191.000000
827.400635	184.000000
827.435425	181.000000
827.470215	194.000000
827.504944	185.000000
827.539734	194.000000
827.574463	183.000000
827.609253	197.000000
827.644043	188.000000
827.678772	195.000000
827.713562	185.000000
827.748352	187.000000
827.783081	182.000000
827.817871	190.000000
827.852600	186.000000
827.887329	193.000000
827.922119	183.000000
827.956848	194.000000
827.991638	202.000000
828.026367	186.000000
828.061157	192.000000
828.095886	189.000000
828.130615	202.000000
828.165344	177.000000
828.200073	187.000000
828.234863	183.000000
828.269592	189.000000
828.304321	192.000000
828.339111	192.000000
828.373779	182.000000
828.408569	196.000000
828.443298	191.000000
828.477966	184.000000
828.512756	182.000000
828.547424	180.000000
828.582214	182.000000
828.616943	183.000000
828.651672	183.000000
828.686340	189.000000
828.721130	182.000000
828.755798	185.000000
828.790527	185.000000
828.825256	189.000000
828.859924	185.000000
828.894714	196.000000
828.929443	191.000000
828.964111	184.000000
828.998840	186.000000
829.033569	184.000000
829.068237	184.000000
829.102966	187.000000
829.137634	184.000000
829.172363	187.000000
829.207092	188.000000
829.241821	181.000000
829.276489	180.000000
829.311157	189.000000
829.345825	181.000000
829.380554	192.000000
829.415283	181.000000
829.449951	179.000000
829.484619	195.000000
829.519348	192.000000
829.554016	184.000000
829.588745	187.000000
829.623413	180.000000
829.658081	194.000000
829.692749	182.000000
829.727417	191.000000
829.762146	186.000000
829.796814	181.000000
829.831482	184.000000
829.866150	187.000000
829.900879	184.000000
829.935486	192.000000
829.970154	189.000000
830.004883	196.000000
830.039490	185.000000
830.074219	180.000000
830.108887	185.000000
830.143494	185.000000
830.178223	182.000000
830.212891	183.000000
830.247498	187.000000
830.282166	192.000000
830.316772	194.000000
830.351501	185.000000
830.386169	182.000000
830.420776	182.000000
830.455444	185.000000
830.490112	175.000000
830.524719	177.000000
830.559387	186.000000
830.594055	184.000000
830.628662	181.000000
830.663330	185.000000
830.697998	187.000000
830.732605	187.000000
830.767273	183.000000
830.801941	177.000000
830.836487	193.000000
830.871155	189.000000
830.905762	184.000000
830.940430	177.000000
830.975098	175.000000
831.009644	181.000000
831.044312	191.000000
831.078979	187.000000
831.113525	170.000000
831.148193	185.000000
831.182861	184.000000
831.217407	188.000000
831.252075	199.000000
831.286621	185.000000
831.321289	179.000000
831.355896	187.000000
831.390564	195.000000
831.425110	187.000000
831.459778	189.000000
831.494324	198.000000
831.528931	183.000000
831.563599	195.000000
831.598145	176.000000
831.632751	184.000000
831.667419	184.000000
831.701965	185.000000
831.736572	186.000000
831.771179	178.000000
831.805786	181.000000
831.840393	186.000000
831.874939	181.000000
831.909546	185.000000
831.944153	173.000000
831.978760	179.000000
832.013306	182.000000
832.047913	187.000000
832.082458	195.000000
832.117065	177.000000
832.151672	196.000000
832.186218	183.000000
832.220825	191.000000
832.255432	174.000000
832.289978	182.000000
832.324585	185.000000
832.359192	183.000000
832.393677	183.000000
832.428284	186.000000
832.462830	177.000000
832.497437	180.000000
832.531982	184.000000
832.566589	180.000000
832.601135	185.000000
832.635681	176.000000
832.670227	181.000000
832.704773	190.000000
832.739380	184.000000
832.773926	180.000000
832.808472	177.000000
832.843079	185.000000
832.877563	184.000000
832.912170	184.000000
832.946716	175.000000
832.981201	187.000000
833.015808	189.000000
833.050293	189.000000
833.084839	177.000000
833.119446	185.000000
833.153992	190.000000
833.188477	179.000000
833.223022	182.000000
833.257568	189.000000
833.292114	190.000000
833.326660	195.000000
833.361145	187.000000
833.395691	173.000000
833.430237	185.000000
833.464783	185.000000
833.499329	180.000000
833.533875	177.000000
833.568359	189.000000
833.602905	191.000000
833.637390	192.000000
833.671875	181.000000
833.706421	183.000000
833.740906	183.000000
833.775452	171.000000
833.809998	179.000000
833.844482	192.000000
833.879028	182.000000
833.913513	181.000000
833.947998	184.000000
833.982544	182.000000
834.017090	178.000000
834.051514	175.000000
834.086060	183.000000
834.120544	181.000000
834.155029	186.000000
834.189575	182.000000
834.223999	180.000000
834.258545	183.000000
834.293030	182.000000
834.327515	181.000000
834.362000	181.000000
834.396545	185.000000
834.430969	179.000000
834.465454	190.000000
834.500000	173.000000
834.534424	189.000000
834.568970	172.000000
834.603455	175.000000
834.637878	177.000000
834.672363	187.000000
834.706909	179.000000
834.741333	178.000000
834.775818	174.000000
834.810242	183.000000
834.844727	178.000000
834.879211	184.000000
834.913635	188.000000
834.948181	182.000000
834.982666	183.000000
835.017090	183.000000
835.051575	185.000000
835.086060	182.000000
835.120483	186.000000
835.154907	185.000000
835.189331	188.000000
835.223816	185.000000
835.258301	174.000000
835.292786	178.000000
835.327209	193.000000
835.361694	177.000000
835.396057	185.000000
835.430542	187.000000
835.465027	183.000000
835.499390	176.000000
835.533875	202.000000
835.568359	177.000000
835.602722	178.000000
835.637207	181.000000
835.671692	180.000000
835.706055	195.000000
835.740540	189.000000
835.774902	181.000000
835.809387	186.000000
835.843811	177.000000
835.878235	192.000000
835.912659	173.000000
835.947083	179.000000
835.981506	181.000000
836.015930	177.000000
836.050354	186.000000
836.084778	192.000000
836.119202	191.000000
836.153625	198.000000
836.187988	179.000000
836.222473	181.000000
836.256897	183.000000
836.291260	179.000000
836.325684	180.000000
836.360046	181.000000
836.394470	182.000000
836.428894	192.000000
836.463318	182.000000
836.497681	187.000000
836.532104	192.000000
836.566467	188.000000
836.600891	185.000000
836.635315	189.000000
836.669678	189.000000
836.704102	189.000000
836.738525	183.000000
836.772888	178.000000
836.807251	182.000000
836.841675	187.000000
836.876038	182.000000
836.910461	175.000000
836.944763	190.000000
836.979187	178.000000
837.013611	188.000000
837.047974	176.000000
837.082336	194.000000
837.116699	190.000000
837.151062	185.000000
837.185486	178.000000
837.219849	186.000000
837.254211	187.000000
837.288574	185.000000
837.322937	178.000000
837.357300	175.000000
837.391663	196.000000
837.426086	188.000000
837.460388	184.000000
837.494751	188.000000
837.529114	179.000000
837.563477	192.000000
837.597839	184.000000
837.632141	185.000000
837.666565	181.000000
837.700928	186.000000
837.735229	182.000000
837.769592	188.000000
837.803955	188.000000
837.838257	181.000000
837.872620	178.000000
837.906982	193.000000
837.941284	183.000000
837.975647	184.000000
838.010010	191.000000
838.044312	178.000000
838.078674	186.000000
838.112976	191.000000
838.147339	184.000000
838.181702	188.000000
838.216003	195.000000
838.250366	184.000000
838.284668	190.000000
838.318970	177.000000
838.353333	182.000000
838.387634	186.000000
838.421936	185.000000
838.456299	185.000000
838.490601	187.000000
838.524902	185.000000
838.559265	186.000000
838.593567	186.000000
838.627869	178.000000
838.662170	188.000000
838.696472	177.000000
838.730774	174.000000
838.765137	189.000000
838.799377	172.000000
838.833740	186.000000
838.868042	189.000000
838.902283	177.000000
838.936646	191.000000
838.970947	190.000000
839.005188	190.000000
839.039551	181.000000
839.073792	191.000000
839.108093	183.000000
839.142395	195.000000
839.176697	181.000000
839.210937	186.000000
839.245300	198.000000
839.279541	176.000000
839.313843	183.000000
839.348145	184.000000
839.382385	190.000000
839.416687	186.000000
839.450989	188.000000
839.485229	180.000000
839.519531	183.000000
839.553833	190.000000
839.588013	183.000000
839.622314	187.000000
839.656555	186.000000
839.690857	181.000000
839.725159	179.000000
839.759460	182.000000
839.793640	178.000000
839.827942	184.000000
839.862183	179.000000
839.896423	185.000000
839.930725	199.000000
839.964966	193.000000
839.999207	192.000000
840.033508	187.000000
840.067688	182.000000
840.101990	188.000000
840.136230	187.000000
840.170471	195.000000
840.204712	181.000000
840.238953	181.000000
840.273193	189.000000
840.307434	184.000000
840.341736	178.000000
840.375916	181.000000
840.410217	179.000000
840.444397	191.000000
840.478638	185.000000
840.512878	191.000000
840.547119	185.000000
840.581360	194.000000
840.615601	194.000000
840.649780	196.000000
840.684021	188.000000
840.718262	192.000000
840.752441	188.000000
840.786682	186.000000
840.820862	185.000000
840.855103	194.000000
840.889343	185.000000
840.923584	189.000000
840.957764	187.000000
840.992004	192.000000
841.026184	196.000000
841.060425	187.000000
841.094666	177.000000
841.128845	188.000000
841.163025	179.000000
841.197266	191.000000
841.231445	180.000000
841.265686	188.000000
841.299866	178.000000
841.334045	193.000000
841.368286	187.000000
841.402405	192.000000
841.436646	186.000000
841.470825	183.000000
841.505005	183.000000
841.539185	179.000000
841.573425	182.000000
841.607544	184.000000
841.641785	179.000000
841.675964	184.000000
841.710144	182.000000
841.744324	183.000000
841.778503	185.000000
841.812683	183.000000
841.846863	189.000000
841.881042	192.000000
841.915222	177.000000
841.949402	197.000000
841.983521	173.000000
842.017700	184.000000
842.051880	186.000000
842.086060	188.000000
842.120239	188.000000
842.154419	184.000000
842.188538	188.000000
842.222717	180.000000
842.256897	196.000000
842.291016	181.000000
842.325195	193.000000
842.359375	199.000000
842.393494	194.000000
842.427673	188.000000
842.461853	192.000000
842.495911	195.000000
842.530090	190.000000
842.564209	183.000000
842.598389	193.000000
842.632568	182.000000
842.666626	189.000000
842.700806	183.000000
842.734985	185.000000
842.769043	184.000000
842.803223	188.000000
842.837402	182.000000
842.871460	182.000000
842.905640	195.000000
842.939697	186.000000
842.973877	185.000000
843.007996	191.000000
843.042175	197.000000
843.076233	181.000000
843.110413	185.000000
843.144470	194.000000
843.178589	185.000000
843.212769	187.000000
843.246826	192.000000
843.280945	182.000000
843.315125	181.000000
843.349182	182.000000
843.383301	190.000000
843.417419	203.000000
843.451538	189.000000
843.485657	185.000000
843.519714	185.000000
843.553833	187.000000
843.587952	180.000000
843.622070	183.000000
843.656128	193.000000
843.690247	182.000000
843.724304	183.000000
843.758423	188.000000
843.792542	184.000000
843.826599	190.000000
843.860718	186.000000
843.894836	179.000000
843.928894	186.000000
843.963013	191.000000
843.997070	181.000000
844.031128	179.000000
844.065247	190.000000
844.099304	188.000000
844.133362	188.000000
844.167480	189.000000
844.201599	194.000000
844.235596	185.000000
844.269714	191.000000
844.303711	184.000000
844.337830	183.000000
844.371948	188.000000
844.405945	189.000000
844.440063	179.000000
844.474121	199.000000
844.508118	179.000000
844.542236	189.000000
844.576294	182.000000
844.610352	181.000000
844.644409	184.000000
844.678406	179.000000
844.712524	187.000000
844.746582	193.000000
844.780640	184.000000
844.814636	184.000000
844.848755	191.000000
844.882751	184.000000
844.916809	188.000000
844.950867	186.000000
844.984863	191.000000
845.018921	184.000000
845.052979	181.000000
845.086975	188.000000
845.121033	177.000000
845.155090	187.000000
845.189087	192.000000
845.223145	185.000000
845.257141	186.000000
845.291199	190.000000
845.325256	188.000000
845.359253	188.000000
845.393250	201.000000
845.427307	184.000000
845.461304	188.000000
845.495361	186.000000
845.529358	194.000000
845.563354	181.000000
845.597412	187.000000
845.631409	193.000000
845.665405	192.000000
845.699463	187.000000
845.733459	185.000000
845.767456	192.000000
845.801453	188.000000
845.835449	189.000000
845.869446	188.000000
845.903503	190.000000
845.937439	182.000000
845.971497	189.000000
846.005493	179.000000
846.039429	187.000000
846.073486	198.000000
846.107483	184.000000
846.141418	183.000000
846.175476	186.000000
846.209473	193.000000
846.243408	178.000000
846.277405	186.000000
846.311401	178.000000
846.345337	185.000000
846.379395	189.000000
846.413330	187.000000
846.447327	187.000000
846.481323	181.000000
846.515259	182.000000
846.549255	189.000000
846.583252	186.000000
846.617187	181.000000
846.651184	185.000000
846.685120	186.000000
846.719055	192.000000
846.753052	185.000000
846.786987	189.000000
846.820984	180.000000
846.854980	189.000000
846.888916	182.000000
846.922852	186.000000
846.956848	192.000000
846.990723	180.000000
847.024719	191.000000
847.058716	179.000000
847.092590	195.000000
847.126587	186.000000
847.160522	185.000000
847.194458	187.000000
847.228455	181.000000
847.262390	176.000000
847.296265	186.000000
847.330261	193.000000
847.364136	187.000000
847.398132	183.000000
847.432068	192.000000
847.466003	182.000000
847.499939	188.000000
847.533875	187.000000
847.567749	187.000000
847.601746	184.000000
847.635681	190.000000
847.669556	180.000000
847.703491	193.000000
847.737427	205.000000
847.771301	183.000000
847.805237	189.000000
847.839233	184.000000
847.873108	185.000000
847.907043	182.000000
847.940918	193.000000
847.974854	186.000000
848.008789	193.000000
848.042664	186.000000
848.076538	187.000000
848.110474	188.000000
848.144348	185.000000
848.178284	173.000000
848.212219	189.000000
848.246094	185.000000
848.279968	189.000000
848.313904	187.000000
848.347778	187.000000
848.381653	179.000000
848.415588	181.000000
848.449463	182.000000
848.483337	186.000000
848.517212	189.000000
848.551086	182.000000
848.585022	177.000000
848.618835	196.000000
848.652771	183.000000
848.686646	183.000000
848.720520	195.000000
848.754395	187.000000
848.788330	186.000000
848.822144	190.000000
848.856018	183.000000
848.889954	195.000000
848.923767	181.000000
848.957642	183.000000
848.991577	185.000000
849.025391	185.000000
849.059265	187.000000
849.093079	185.000000
849.126953	185.000000
849.160828	191.000000
849.194641	188.000000
849.228577	184.000000
849.262451	188.000000
849.296265	179.000000
849.330139	184.000000
849.364014	186.000000
849.397827	191.000000
849.431702	188.000000
849.465515	194.000000
849.499329	175.000000
849.533203	183.000000
849.567078	172.000000
849.600891	187.000000
849.634766	185.000000
849.668518	192.000000
849.702393	187.000000
849.736267	185.000000
849.770020	197.000000
849.803894	191.000000
849.837769	183.000000
849.871521	188.000000
849.905396	189.000000
849.939270	183.000000
849.973022	189.000000
850.006897	192.000000
850.040710	186.000000
850.074524	190.000000
850.108337	181.000000
850.142151	194.000000
850.175964	192.000000
850.209778	186.000000
850.243530	170.000000
850.277405	197.000000
850.311218	180.000000
850.344971	187.000000
850.378845	197.000000
850.412659	182.000000
850.446411	186.000000
850.480225	188.000000
850.514038	189.000000
850.547791	188.000000
850.581665	183.000000
850.615417	181.000000
850.649231	189.000000
850.683044	185.000000
850.716858	186.000000
850.750610	187.000000
850.784424	193.000000
850.818176	183.000000
850.851929	187.000000
850.885742	184.000000
850.919495	182.000000
850.953308	195.000000
850.987122	197.000000
851.020874	181.000000
851.054626	180.000000
851.088440	186.000000
851.122192	191.000000
851.156006	186.000000
851.189697	185.000000
851.223511	177.000000
851.257263	193.000000
851.291077	183.000000
851.324829	184.000000
851.358582	184.000000
851.392334	184.000000
851.426086	180.000000
851.459900	195.000000
851.493591	185.000000
851.527344	181.000000
851.561157	181.000000
851.594849	189.000000
851.628662	185.000000
851.662415	202.000000
851.696106	189.000000
851.729858	188.000000
851.763611	182.000000
851.797363	189.000000
851.831116	177.000000
851.864868	185.000000
851.898560	189.000000
851.932312	182.000000
851.966064	186.000000
851.999817	186.000000
852.033569	182.000000
852.067261	190.000000
852.101013	185.000000
852.134766	186.000000
852.168457	177.000000
852.202209	197.000000
852.235901	178.000000
852.269592	190.000000
852.303345	199.000000
852.337036	193.000000
852.370789	187.000000
852.404541	191.000000
852.438171	179.000000
852.471924	187.000000
852.505676	184.000000
852.539307	191.000000
852.573059	185.000000
852.606812	188.000000
852.640442	182.000000
852.674194	195.000000
852.707886	199.000000
852.741577	193.000000
852.775269	184.000000
852.809021	190.000000
852.842651	189.000000
852.876404	188.000000
852.910034	186.000000
852.943787	191.000000
852.977478	193.000000
853.011108	182.000000
853.044861	186.000000
853.078552	191.000000
853.112183	186.000000
853.145874	188.000000
853.179626	179.000000
853.213257	188.000000
853.246948	184.000000
853.280640	196.000000
853.314270	186.000000
853.347961	189.000000
853.381653	189.000000
853.415283	186.000000
853.448975	182.000000
853.482605	184.000000
853.516296	184.000000
853.549988	179.000000
853.583618	190.000000
853.617310	190.000000
853.651001	186.000000
853.684631	181.000000
853.718323	189.000000
853.751953	191.000000
853.785583	178.000000
853.819275	190.000000
853.852966	189.000000
853.886536	177.000000
853.920227	185.000000
853.953918	187.000000
853.987488	185.000000
854.021179	193.000000
854.054749	192.000000
854.088440	191.000000
854.122131	185.000000
854.155701	185.000000
854.189331	186.000000
854.223022	193.000000
854.256592	188.000000
854.290283	186.000000
854.323914	192.000000
854.357483	188.000000
854.391174	191.000000
854.424744	197.000000
854.458374	192.000000
854.492065	203.000000
854.525696	185.000000
854.559265	194.000000
854.592896	198.000000
854.626465	188.000000
854.660095	184.000000
854.693787	186.000000
854.727356	187.000000
854.760986	190.000000
854.794617	187.000000
854.828186	191.000000
854.861816	188.000000
854.895447	186.000000
854.929016	188.000000
854.962585	189.000000
854.996155	194.000000
855.029785	189.000000
855.063416	185.000000
855.097046	191.000000
855.130615	179.000000
855.164185	192.000000
855.197754	186.000000
855.231384	187.000000
855.264954	182.000000
855.298523	185.000000
855.332153	188.000000
855.365723	192.000000
855.399292	179.000000
855.432922	185.000000
855.466492	185.000000
855.500061	181.000000
855.533630	183.000000
855.567200	188.000000
855.600769	191.000000
855.634338	195.000000
855.667969	184.000000
855.701477	185.000000
855.735046	184.000000
855.768616	178.000000
855.802185	191.000000
855.835754	201.000000
855.869324	177.000000
855.902893	188.000000
855.936401	198.000000
855.969971	190.000000
856.003540	183.000000
856.037109	191.000000
856.070618	183.000000
856.104187	183.000000
856.137695	185.000000
856.171265	178.000000
856.204834	190.000000
856.238403	193.000000
856.271912	185.000000
856.305481	189.000000
856.338989	185.000000
856.372559	189.000000
856.406128	190.000000
856.439636	192.000000
856.473145	185.000000
856.506653	190.000000
856.540222	189.000000
856.573792	191.000000
856.607300	194.000000
856.640808	180.000000
856.674377	188.000000
856.707825	212.000000
856.741394	192.000000
856.774902	180.000000
856.808472	180.000000
856.841980	186.000000
856.875488	194.000000
856.908936	178.000000
856.942505	184.000000
856.976013	179.000000
857.009521	182.000000
857.043030	189.000000
857.076477	186.000000
857.110046	193.000000
857.143555	192.000000
857.177063	191.000000
857.210571	186.000000
857.244080	179.000000
857.277527	187.000000
857.311035	184.000000
857.344543	193.000000
857.378052	182.000000
857.411499	195.000000
857.445068	195.000000
857.478516	183.000000
857.512024	182.000000
857.545532	184.000000
857.578979	185.000000
857.612427	188.000000
857.645874	185.000000
857.679382	187.000000
857.712891	191.000000
857.746399	192.000000
857.779846	190.000000
857.813354	191.000000
857.846741	189.000000
857.880249	183.000000
857.913757	191.000000
857.947266	187.000000
857.980652	188.000000
858.014160	183.000000
858.047546	189.000000
858.081055	188.000000
858.114563	199.000000
858.147949	182.000000
858.181458	190.000000
858.214844	183.000000
858.248352	183.000000
858.281799	191.000000
858.315308	202.000000
858.348694	190.000000
858.382141	195.000000
858.415588	190.000000
858.449036	196.000000
858.482483	185.000000
858.515930	186.000000
858.549377	186.000000
858.582825	191.000000
858.616211	190.000000
858.649658	191.000000
858.683105	178.000000
858.716553	185.000000
858.750000	184.000000
858.783386	184.000000
858.816833	183.000000
858.850281	188.000000
858.883728	185.000000
858.917114	188.000000
858.950562	198.000000
858.983948	197.000000
859.017395	186.000000
859.050781	187.000000
859.084167	178.000000
859.117615	182.000000
859.151062	194.000000
859.184448	178.000000
859.217834	185.000000
859.251282	185.000000
859.284668	180.000000
859.318054	181.000000
859.351440	187.000000
859.384888	193.000000
859.418274	182.000000
859.451721	178.000000
859.485046	187.000000
859.518494	191.000000
859.551819	186.000000
859.585266	188.000000
859.618652	193.000000
859.652039	181.000000
859.685425	181.000000
859.718811	180.000000
859.752197	179.000000
859.785583	194.000000
859.819031	195.000000
859.852356	191.000000
859.885742	186.000000
859.919067	186.000000
859.952454	184.000000
859.985901	188.000000
860.019287	188.000000
860.052612	0.000000
860.085999	0.000000
860.119324	0.000000
860.152710	0.000000
860.186096	0.000000
860.219421	0.000000
860.252808	0.000000
860.286133	0.000000
860.319519	0.000000
860.352905	0.000000
860.386292	0.000000
860.419617	0.000000
860.452942	0.000000
860.486267	0.000000
860.519653	0.000000
860.553040	0.000000
860.586365	0.000000
860.619690	0.000000
860.653076	0.000000
860.686340	0.000000
860.719727	0.000000
860.753113	0.000000
860.786377	0.000000
860.819763	0.000000
860.853027	0.000000
860.886414	0.000000
860.919739	0.000000
860.953125	0.000000
860.986389	0.000000
861.019714	0.000000
861.053040	0.000000
861.086365	0.000000
861.119690	0.000000
861.153076	0.000000
861.186340	0.000000
861.219666	0.000000
861.252930	0.000000
861.286316	0.000000
861.319641	0.000000
861.352905	0.000000
861.386230	0.000000
861.419495	0.000000
861.452820	0.000000
861.486145	0.000000
861.519470	0.000000
861.552734	0.000000
861.586060	0.000000
861.619324	0.000000
861.652649	0.000000
861.685974	0.000000
861.719238	0.000000
861.752563	0.000000
861.785828	0.000000
861.819092	0.000000
861.852417	0.000000
861.885742	0.000000
861.918945	0.000000
861.952271	0.000000
861.985535	0.000000
862.018799	0.000000
862.052124	0.000000
862.085449	0.000000
862.118652	0.000000
862.151978	0.000000
862.185181	0.000000
862.218506	0.000000
862.251770	0.000000
862.285034	0.000000
862.318298	0.000000
862.351562	0.000000
862.384827	0.000000
862.418091	0.000000
862.451355	0.000000
862.484619	0.000000
862.517883	0.000000
862.551086	0.000000
862.584351	0.000000
862.617676	0.000000
862.650940	0.000000
862.684143	0.000000
862.717407	0.000000
862.750610	0.000000
862.783875	0.000000
862.817139	0.000000
862.850342	0.000000
862.883606	0.000000
862.916870	0.000000
862.950073	0.000000
862.983337	0.000000
863.016602	0.000000
863.049805	0.000000
863.083069	0.000000
863.116211	0.000000
863.149475	0.000000
863.182739	0.000000
863.216003	0.000000
863.249146	0.000000
863.282410	0.000000
863.315613	0.000000
863.348816	0.000000
863.382080	0.000000
863.415222	0.000000
863.448486	0.000000
863.481689	0.000000
863.514893	0.000000
863.548157	0.000000
863.581360	0.000000
863.614502	0.000000
863.647766	0.000000
863.680908	0.000000
863.714172	0.000000
863.747375	0.000000
863.780579	0.000000
863.813721	0.000000
863.846985	0.000000
863.880127	0.000000
863.913330	0.000000
863.946533	0.000000
863.979675	0.000000
864.012939	0.000000
