Model Number: SPM-001-M   
Serial Number: 10090201
Firmware Version: 004.17.6
Exposure Time: 500000.000000us
Data Taken on: 27-08-2020 10:07:37.969
Wavelength	Amplitude
733.770752	0.000000
733.808716	0.000000
733.846619	0.000000
733.884583	0.000000
733.922546	0.000000
733.960449	0.000000
733.998413	0.000000
734.036377	0.000000
734.074219	0.000000
734.112183	0.000000
734.150085	0.000000
734.188049	0.000000
734.226013	0.000000
734.263916	0.000000
734.301819	0.000000
734.339783	0.000000
734.377686	0.000000
734.415588	0.000000
734.453552	0.000000
734.491455	0.000000
734.529419	0.000000
734.567322	0.000000
734.605225	0.000000
734.643127	0.000000
734.681091	0.000000
734.718994	0.000000
734.756897	0.000000
734.794800	0.000000
734.832703	0.000000
734.870667	0.000000
734.908508	0.000000
734.946472	0.000000
734.984375	0.000000
735.022278	0.000000
735.060181	0.000000
735.098083	0.000000
735.135986	0.000000
735.173889	0.000000
735.211792	0.000000
735.249695	0.000000
735.287598	0.000000
735.325439	0.000000
735.363403	0.000000
735.401306	0.000000
735.439148	0.000000
735.477051	0.000000
735.515015	0.000000
735.552856	0.000000
735.590759	0.000000
735.628662	0.000000
735.666504	0.000000
735.704407	0.000000
735.742310	0.000000
735.780212	0.000000
735.818115	0.000000
735.856018	0.000000
735.893860	0.000000
735.931763	0.000000
735.969604	0.000000
736.007507	0.000000
736.045410	0.000000
736.083252	0.000000
736.121094	0.000000
736.158997	0.000000
736.196838	0.000000
736.234741	0.000000
736.272644	0.000000
736.310486	0.000000
736.348389	0.000000
736.386230	0.000000
736.424072	0.000000
736.461975	0.000000
736.499878	0.000000
736.537720	0.000000
736.575562	0.000000
736.613403	0.000000
736.651306	0.000000
736.689148	0.000000
736.726990	0.000000
736.764893	0.000000
736.802734	0.000000
736.840576	0.000000
736.878418	0.000000
736.916321	0.000000
736.954102	0.000000
736.992004	0.000000
737.029846	0.000000
737.067688	0.000000
737.105530	0.000000
737.143372	0.000000
737.181213	0.000000
737.219116	0.000000
737.256897	0.000000
737.294739	0.000000
737.332642	0.000000
737.370422	0.000000
737.408325	0.000000
737.446167	0.000000
737.483948	0.000000
737.521790	0.000000
737.559692	0.000000
737.597473	0.000000
737.635315	0.000000
737.673157	0.000000
737.710999	0.000000
737.748840	0.000000
737.786621	0.000000
737.824463	0.000000
737.862305	0.000000
737.900085	0.000000
737.937927	0.000000
737.975769	0.000000
738.013550	0.000000
738.051392	0.000000
738.089233	0.000000
738.127014	0.000000
738.164856	0.000000
738.202698	0.000000
738.240479	0.000000
738.278320	0.000000
738.316162	0.000000
738.353943	0.000000
738.391785	0.000000
738.429565	0.000000
738.467407	0.000000
738.505188	0.000000
738.542969	0.000000
738.580811	0.000000
738.618652	0.000000
738.656372	0.000000
738.694214	0.000000
738.732056	0.000000
738.769836	0.000000
738.807617	0.000000
738.845459	0.000000
738.883240	0.000000
738.921021	0.000000
738.958862	0.000000
738.996582	0.000000
739.034424	0.000000
739.072205	0.000000
739.109985	0.000000
739.147827	0.000000
739.185547	0.000000
739.223389	0.000000
739.261169	0.000000
739.298889	0.000000
739.336731	0.000000
739.374512	0.000000
739.412292	0.000000
739.450073	0.000000
739.487854	0.000000
739.525635	0.000000
739.563416	0.000000
739.601135	0.000000
739.638977	0.000000
739.676758	0.000000
739.714478	0.000000
739.752258	0.000000
739.790100	0.000000
739.827820	0.000000
739.865601	0.000000
739.903381	0.000000
739.941101	0.000000
739.978882	189.000000
740.016724	187.000000
740.054443	189.000000
740.092224	180.000000
740.130005	182.000000
740.167725	185.000000
740.205505	183.000000
740.243225	194.000000
740.281006	183.000000
740.318787	180.000000
740.356506	190.000000
740.394287	186.000000
740.432068	180.000000
740.469727	178.000000
740.507507	185.000000
740.545288	187.000000
740.583008	189.000000
740.620789	184.000000
740.658569	174.000000
740.696228	187.000000
740.734009	187.000000
740.771790	178.000000
740.809509	187.000000
740.847229	180.000000
740.884949	180.000000
740.922729	176.000000
740.960449	181.000000
740.998169	180.000000
741.035950	179.000000
741.073669	181.000000
741.111389	183.000000
741.149170	194.000000
741.186890	186.000000
741.224609	189.000000
741.262329	182.000000
741.300110	194.000000
741.337769	175.000000
741.375549	181.000000
741.413208	185.000000
741.450989	183.000000
741.488708	183.000000
741.526367	180.000000
741.564148	188.000000
741.601868	188.000000
741.639526	179.000000
741.677307	187.000000
741.715027	187.000000
741.752686	179.000000
741.790466	189.000000
741.828186	188.000000
741.865845	177.000000
741.903564	179.000000
741.941345	189.000000
741.979004	180.000000
742.016724	190.000000
742.054382	181.000000
742.092102	185.000000
742.129822	183.000000
742.167480	180.000000
742.205200	183.000000
742.242920	189.000000
742.280640	187.000000
742.318359	184.000000
742.356079	179.000000
742.393738	189.000000
742.431396	181.000000
742.469116	192.000000
742.506775	174.000000
742.544495	185.000000
742.582214	190.000000
742.619873	185.000000
742.657593	189.000000
742.695251	195.000000
742.732971	183.000000
742.770630	186.000000
742.808289	183.000000
742.846008	186.000000
742.883728	184.000000
742.921326	183.000000
742.959045	183.000000
742.996765	183.000000
743.034424	184.000000
743.072083	181.000000
743.109802	181.000000
743.147400	181.000000
743.185120	183.000000
743.222839	183.000000
743.260437	189.000000
743.298157	188.000000
743.335754	175.000000
743.373474	185.000000
743.411133	178.000000
743.448792	187.000000
743.486450	184.000000
743.524170	182.000000
743.561768	185.000000
743.599487	195.000000
743.637146	194.000000
743.674744	179.000000
743.712463	186.000000
743.750122	184.000000
743.787720	185.000000
743.825439	184.000000
743.863037	183.000000
743.900696	184.000000
743.938416	212.000000
743.976013	180.000000
744.013672	190.000000
744.051331	187.000000
744.088928	194.000000
744.126587	189.000000
744.164307	186.000000
744.201904	178.000000
744.239563	191.000000
744.277222	187.000000
744.314819	188.000000
744.352478	192.000000
744.390137	186.000000
744.427734	186.000000
744.465393	184.000000
744.502991	181.000000
744.540649	188.000000
744.578308	185.000000
744.615906	184.000000
744.653564	175.000000
744.691223	186.000000
744.728821	174.000000
744.766418	188.000000
744.804077	185.000000
744.841675	183.000000
744.879333	179.000000
744.916992	182.000000
744.954529	184.000000
744.992187	192.000000
745.029785	179.000000
745.067444	181.000000
745.105042	182.000000
745.142639	186.000000
745.180298	188.000000
745.217896	181.000000
745.255493	184.000000
745.293152	189.000000
745.330750	189.000000
745.368347	193.000000
745.405945	188.000000
745.443604	185.000000
745.481140	188.000000
745.518799	184.000000
745.556396	193.000000
745.593994	187.000000
745.631592	186.000000
745.669189	182.000000
745.706787	182.000000
745.744385	181.000000
745.781982	187.000000
745.819580	177.000000
745.857178	185.000000
745.894775	189.000000
745.932373	184.000000
745.969971	185.000000
746.007568	179.000000
746.045166	195.000000
746.082764	191.000000
746.120300	187.000000
746.157898	189.000000
746.195557	189.000000
746.233093	184.000000
746.270691	187.000000
746.308228	187.000000
746.345825	185.000000
746.383423	188.000000
746.420959	178.000000
746.458557	185.000000
746.496155	179.000000
746.533691	189.000000
746.571289	179.000000
746.608887	185.000000
746.646423	185.000000
746.684021	184.000000
746.721619	178.000000
746.759155	185.000000
746.796753	178.000000
746.834351	178.000000
746.871826	179.000000
746.909424	193.000000
746.946960	185.000000
746.984558	183.000000
747.022156	181.000000
747.059631	189.000000
747.097229	183.000000
747.134827	181.000000
747.172363	191.000000
747.209900	188.000000
747.247498	184.000000
747.285034	191.000000
747.322571	191.000000
747.360168	183.000000
747.397644	174.000000
747.435242	188.000000
747.472778	194.000000
747.510315	182.000000
747.547913	185.000000
747.585388	195.000000
747.622925	182.000000
747.660522	178.000000
747.697998	181.000000
747.735596	183.000000
747.773132	181.000000
747.810669	183.000000
747.848206	189.000000
747.885742	184.000000
747.923279	183.000000
747.960815	189.000000
747.998352	185.000000
748.035889	190.000000
748.073425	186.000000
748.110901	184.000000
748.148437	183.000000
748.185974	183.000000
748.223511	193.000000
748.261047	185.000000
748.298584	185.000000
748.336060	184.000000
748.373596	192.000000
748.411133	203.000000
748.448608	179.000000
748.486145	188.000000
748.523682	187.000000
748.561218	191.000000
748.598755	187.000000
748.636292	183.000000
748.673706	189.000000
748.711243	192.000000
748.748718	186.000000
748.786255	182.000000
748.823792	183.000000
748.861267	175.000000
748.898804	189.000000
748.936340	187.000000
748.973816	181.000000
749.011292	190.000000
749.048828	186.000000
749.086304	183.000000
749.123840	195.000000
749.161316	185.000000
749.198792	196.000000
749.236328	189.000000
749.273743	187.000000
749.311279	183.000000
749.348816	190.000000
749.386230	189.000000
749.423767	173.000000
749.461304	189.000000
749.498718	187.000000
749.536255	189.000000
749.573730	196.000000
749.611206	193.000000
749.648682	189.000000
749.686218	187.000000
749.723633	191.000000
749.761169	184.000000
749.798645	185.000000
749.836060	184.000000
749.873596	179.000000
749.911011	185.000000
749.948547	191.000000
749.986023	183.000000
750.023437	186.000000
750.060913	180.000000
750.098450	178.000000
750.135864	183.000000
750.173340	178.000000
750.210815	190.000000
750.248291	178.000000
750.285767	185.000000
750.323242	191.000000
750.360657	191.000000
750.398132	177.000000
750.435608	189.000000
750.473022	180.000000
750.510498	180.000000
750.547974	176.000000
750.585449	184.000000
750.622925	176.000000
750.660339	194.000000
750.697815	182.000000
750.735291	188.000000
750.772644	186.000000
750.810120	182.000000
750.847595	186.000000
750.885010	180.000000
750.922485	192.000000
750.959961	182.000000
750.997375	188.000000
751.034851	186.000000
751.072266	191.000000
751.109680	177.000000
751.147156	192.000000
751.184570	188.000000
751.221985	183.000000
751.259460	176.000000
751.296875	187.000000
751.334290	188.000000
751.371765	190.000000
751.409180	184.000000
751.446594	190.000000
751.484070	190.000000
751.521423	187.000000
751.558899	184.000000
751.596375	198.000000
751.633728	196.000000
751.671204	197.000000
751.708618	185.000000
751.746033	189.000000
751.783447	180.000000
751.820801	181.000000
751.858276	190.000000
751.895691	186.000000
751.933105	182.000000
751.970520	182.000000
752.007935	184.000000
752.045349	190.000000
752.082764	180.000000
752.120178	182.000000
752.157532	183.000000
752.195007	185.000000
752.232422	182.000000
752.269775	190.000000
752.307190	187.000000
752.344543	178.000000
752.382019	180.000000
752.419434	181.000000
752.456787	185.000000
752.494202	188.000000
752.531616	184.000000
752.568970	183.000000
752.606384	186.000000
752.643799	185.000000
752.681152	192.000000
752.718567	189.000000
752.755981	178.000000
752.793335	188.000000
752.830750	177.000000
752.868164	190.000000
752.905518	178.000000
752.942932	195.000000
752.980225	182.000000
753.017639	185.000000
753.055054	191.000000
753.092407	186.000000
753.129822	188.000000
753.167175	192.000000
753.204529	189.000000
753.241943	181.000000
753.279358	179.000000
753.316650	191.000000
753.354065	187.000000
753.391479	190.000000
753.428772	194.000000
753.466187	186.000000
753.503479	183.000000
753.540894	186.000000
753.578308	180.000000
753.615601	183.000000
753.653015	188.000000
753.690369	183.000000
753.727722	185.000000
753.765076	182.000000
753.802490	179.000000
753.839783	177.000000
753.877136	183.000000
753.914551	196.000000
753.951843	181.000000
753.989258	184.000000
754.026611	189.000000
754.063904	189.000000
754.101257	183.000000
754.138611	175.000000
754.175964	188.000000
754.213318	192.000000
754.250610	180.000000
754.288025	182.000000
754.325378	182.000000
754.362671	187.000000
754.400024	185.000000
754.437378	191.000000
754.474670	193.000000
754.512085	182.000000
754.549438	187.000000
754.586731	179.000000
754.624084	185.000000
754.661438	180.000000
754.698730	190.000000
754.736084	183.000000
754.773376	188.000000
754.810730	183.000000
754.848083	185.000000
754.885315	190.000000
754.922668	179.000000
754.960022	183.000000
754.997314	194.000000
755.034668	187.000000
755.072021	193.000000
755.109253	185.000000
755.146606	191.000000
755.183960	183.000000
755.221252	196.000000
755.258545	189.000000
755.295898	190.000000
755.333191	190.000000
755.370544	188.000000
755.407776	186.000000
755.445129	191.000000
755.482422	189.000000
755.519714	186.000000
755.557068	182.000000
755.594360	180.000000
755.631653	191.000000
755.668945	196.000000
755.706299	188.000000
755.743530	196.000000
755.780884	200.000000
755.818176	192.000000
755.855408	196.000000
755.892761	189.000000
755.930054	190.000000
755.967346	190.000000
756.004639	195.000000
756.041870	187.000000
756.079224	200.000000
756.116516	181.000000
756.153748	191.000000
756.191040	192.000000
756.228394	190.000000
756.265625	186.000000
756.302917	192.000000
756.340210	188.000000
756.377441	194.000000
756.414795	195.000000
756.452087	191.000000
756.489319	184.000000
756.526611	197.000000
756.563843	190.000000
756.601135	200.000000
756.638428	198.000000
756.675659	193.000000
756.712952	187.000000
756.750244	197.000000
756.787476	190.000000
756.824768	201.000000
756.862061	191.000000
756.899292	242.000000
756.936584	191.000000
756.973816	201.000000
757.011047	207.000000
757.048340	190.000000
757.085632	193.000000
757.122864	210.000000
757.160156	192.000000
757.197327	199.000000
757.234619	202.000000
757.271912	193.000000
757.309082	198.000000
757.346375	188.000000
757.383667	200.000000
757.420837	197.000000
757.458130	201.000000
757.495422	193.000000
757.532593	196.000000
757.569885	188.000000
757.607117	196.000000
757.644348	200.000000
757.681580	212.000000
757.718811	187.000000
757.756042	197.000000
757.793335	191.000000
757.830505	200.000000
757.867798	189.000000
757.905029	195.000000
757.942200	195.000000
757.979492	195.000000
758.016724	197.000000
758.053894	199.000000
758.091187	215.000000
758.128418	195.000000
758.165588	195.000000
758.202820	209.000000
758.240112	199.000000
758.277283	209.000000
758.314514	199.000000
758.351685	198.000000
758.388916	206.000000
758.426147	205.000000
758.463379	205.000000
758.500610	202.000000
758.537842	199.000000
758.575012	207.000000
758.612244	193.000000
758.649475	210.000000
758.686646	195.000000
758.723877	208.000000
758.761108	205.000000
758.798279	205.000000
758.835510	198.000000
758.872742	210.000000
758.909851	204.000000
758.947083	209.000000
758.984253	206.000000
759.021484	207.000000
759.058716	205.000000
759.095886	210.000000
759.133057	202.000000
759.170288	208.000000
759.207458	207.000000
759.244690	214.000000
759.281860	211.000000
759.319031	206.000000
759.356262	203.000000
759.393433	198.000000
759.430603	208.000000
759.467773	207.000000
759.505005	206.000000
759.542175	212.000000
759.579346	205.000000
759.616516	203.000000
759.653687	209.000000
759.690918	204.000000
759.728027	210.000000
759.765259	209.000000
759.802429	209.000000
759.839539	204.000000
759.876770	217.000000
759.913940	213.000000
759.951111	206.000000
759.988281	205.000000
760.025452	205.000000
760.062561	203.000000
760.099792	216.000000
760.136963	213.000000
760.174072	204.000000
760.211243	199.000000
760.248413	206.000000
760.285583	199.000000
760.322754	220.000000
760.359863	216.000000
760.397034	215.000000
760.434204	206.000000
760.471375	213.000000
760.508545	207.000000
760.545715	211.000000
760.582825	208.000000
760.619995	215.000000
760.657166	206.000000
760.694275	216.000000
760.731445	214.000000
760.768555	214.000000
760.805664	220.000000
760.842834	209.000000
760.879944	219.000000
760.917114	213.000000
760.954285	211.000000
760.991394	213.000000
761.028564	221.000000
761.065674	222.000000
761.102783	214.000000
761.139954	222.000000
761.177124	216.000000
761.214172	224.000000
761.251343	216.000000
761.288452	219.000000
761.325562	225.000000
761.362732	214.000000
761.399841	219.000000
761.436951	223.000000
761.474121	216.000000
761.511169	218.000000
761.548340	225.000000
761.585449	225.000000
761.622559	227.000000
761.659668	224.000000
761.696838	234.000000
761.733887	223.000000
761.771057	226.000000
761.808167	224.000000
761.845276	233.000000
761.882385	240.000000
761.919434	226.000000
761.956604	245.000000
761.993713	224.000000
762.030762	238.000000
762.067871	236.000000
762.105042	224.000000
762.142090	239.000000
762.179199	229.000000
762.216309	235.000000
762.253418	249.000000
762.290527	247.000000
762.327637	237.000000
762.364685	227.000000
762.401794	236.000000
762.438904	237.000000
762.475952	228.000000
762.513062	230.000000
762.550110	229.000000
762.587219	243.000000
762.624329	238.000000
762.661377	241.000000
762.698486	235.000000
762.735596	243.000000
762.772644	232.000000
762.809753	232.000000
762.846863	238.000000
762.883911	243.000000
762.921021	247.000000
762.958069	238.000000
762.995117	251.000000
763.032227	249.000000
763.069336	240.000000
763.106323	240.000000
763.143433	243.000000
763.180481	248.000000
763.217590	248.000000
763.254639	239.000000
763.291687	239.000000
763.328735	247.000000
763.365845	240.000000
763.402893	237.000000
763.439941	241.000000
763.477051	247.000000
763.514038	253.000000
763.551147	244.000000
763.588196	253.000000
763.625244	246.000000
763.662292	255.000000
763.699402	253.000000
763.736389	252.000000
763.773499	255.000000
763.810486	251.000000
763.847534	249.000000
763.884644	256.000000
763.921631	252.000000
763.958679	269.000000
763.995728	253.000000
764.032776	269.000000
764.069824	249.000000
764.106873	264.000000
764.143860	262.000000
764.180969	252.000000
764.218018	258.000000
764.255005	256.000000
764.292053	255.000000
764.329102	271.000000
764.366089	272.000000
764.403137	268.000000
764.440125	261.000000
764.477173	271.000000
764.514221	272.000000
764.551208	264.000000
764.588257	260.000000
764.625305	265.000000
764.662292	269.000000
764.699341	277.000000
764.736389	266.000000
764.773376	285.000000
764.810425	272.000000
764.847473	280.000000
764.884399	278.000000
764.921448	285.000000
764.958435	289.000000
764.995483	277.000000
765.032532	297.000000
765.069458	272.000000
765.106506	277.000000
765.143555	265.000000
765.180481	278.000000
765.217529	287.000000
765.254578	274.000000
765.291504	280.000000
765.328552	283.000000
765.365540	281.000000
765.402527	301.000000
765.439575	286.000000
765.476501	283.000000
765.513550	278.000000
765.550537	289.000000
765.587463	288.000000
765.624512	279.000000
765.661499	271.000000
765.698486	287.000000
765.735474	280.000000
765.772461	289.000000
765.809448	292.000000
765.846436	290.000000
765.883423	294.000000
765.920410	293.000000
765.957397	282.000000
765.994385	301.000000
766.031311	306.000000
766.068359	293.000000
766.105286	297.000000
766.142273	298.000000
766.179260	292.000000
766.216187	285.000000
766.253174	288.000000
766.290161	299.000000
766.327148	296.000000
766.364136	305.000000
766.401123	317.000000
766.438049	295.000000
766.475037	310.000000
766.512024	310.000000
766.548950	322.000000
766.585937	322.000000
766.622864	310.000000
766.659790	325.000000
766.696777	307.000000
766.733704	321.000000
766.770691	311.000000
766.807678	330.000000
766.844604	318.000000
766.881531	328.000000
766.918518	327.000000
766.955444	329.000000
766.992432	331.000000
767.029358	335.000000
767.066284	330.000000
767.103271	329.000000
767.140198	363.000000
767.177124	345.000000
767.214050	343.000000
767.251038	333.000000
767.287964	335.000000
767.324890	330.000000
767.361816	345.000000
767.398743	347.000000
767.435730	338.000000
767.472595	340.000000
767.509583	349.000000
767.546509	340.000000
767.583374	352.000000
767.620361	335.000000
767.657288	342.000000
767.694214	343.000000
767.731140	349.000000
767.768066	346.000000
767.804993	356.000000
767.841919	337.000000
767.878845	352.000000
767.915710	361.000000
767.952698	347.000000
767.989563	357.000000
768.026489	361.000000
768.063416	355.000000
768.100281	362.000000
768.137207	370.000000
768.174133	365.000000
768.211060	367.000000
768.247986	366.000000
768.284912	359.000000
768.321777	373.000000
768.358704	373.000000
768.395630	371.000000
768.432495	366.000000
768.469421	371.000000
768.506348	376.000000
768.543152	379.000000
768.580078	379.000000
768.616943	381.000000
768.653870	384.000000
768.690796	379.000000
768.727661	380.000000
768.764587	383.000000
768.801453	376.000000
768.838318	390.000000
768.875244	392.000000
768.912109	408.000000
768.948975	387.000000
768.985901	389.000000
769.022766	384.000000
769.059631	385.000000
769.096558	392.000000
769.133362	395.000000
769.170288	394.000000
769.207214	395.000000
769.244019	400.000000
769.280945	398.000000
769.317810	406.000000
769.354675	405.000000
769.391541	415.000000
769.428406	406.000000
769.465271	428.000000
769.502136	408.000000
769.539062	413.000000
769.575867	416.000000
769.612732	422.000000
769.649597	420.000000
769.686462	425.000000
769.723328	414.000000
769.760193	423.000000
769.797058	423.000000
769.833923	434.000000
769.870728	424.000000
769.907593	425.000000
769.944519	424.000000
769.981323	429.000000
770.018188	437.000000
770.055054	420.000000
770.091858	431.000000
770.128723	440.000000
770.165588	444.000000
770.202393	433.000000
770.239258	446.000000
770.276062	438.000000
770.312927	449.000000
770.349792	453.000000
770.386597	441.000000
770.423462	458.000000
770.460327	461.000000
770.497131	450.000000
770.533997	449.000000
770.570862	456.000000
770.607605	464.000000
770.644470	454.000000
770.681335	458.000000
770.718140	458.000000
770.754944	461.000000
770.791809	459.000000
770.828613	454.000000
770.865479	452.000000
770.902222	474.000000
770.939087	468.000000
770.975952	458.000000
771.012695	461.000000
771.049561	479.000000
771.086365	461.000000
771.123169	459.000000
771.159973	470.000000
771.196838	476.000000
771.233582	471.000000
771.270447	478.000000
771.307251	470.000000
771.344055	474.000000
771.380859	478.000000
771.417664	475.000000
771.454468	483.000000
771.491272	481.000000
771.528076	481.000000
771.564880	481.000000
771.601685	489.000000
771.638428	479.000000
771.675293	490.000000
771.712097	473.000000
771.748840	492.000000
771.785645	493.000000
771.822449	490.000000
771.859253	494.000000
771.896057	497.000000
771.932861	512.000000
771.969604	505.000000
772.006409	496.000000
772.043213	498.000000
772.079956	504.000000
772.116760	506.000000
772.153503	507.000000
772.190308	523.000000
772.227112	523.000000
772.263855	509.000000
772.300659	526.000000
772.337463	532.000000
772.374207	523.000000
772.411011	518.000000
772.447754	514.000000
772.484497	528.000000
772.521301	532.000000
772.558105	520.000000
772.594849	527.000000
772.631592	547.000000
772.668396	532.000000
772.705139	546.000000
772.741882	531.000000
772.778625	558.000000
772.815430	562.000000
772.852173	559.000000
772.888916	562.000000
772.925720	570.000000
772.962463	571.000000
772.999207	574.000000
773.035950	572.000000
773.072754	582.000000
773.109436	585.000000
773.146240	571.000000
773.182922	572.000000
773.219727	581.000000
773.256470	577.000000
773.293152	579.000000
773.329956	595.000000
773.366699	585.000000
773.403381	571.000000
773.440186	588.000000
773.476929	585.000000
773.513611	590.000000
773.550354	602.000000
773.587158	599.000000
773.623840	586.000000
773.660583	594.000000
773.697327	600.000000
773.734009	598.000000
773.770813	605.000000
773.807495	613.000000
773.844238	610.000000
773.880981	619.000000
773.917664	605.000000
773.954407	617.000000
773.991150	625.000000
774.027832	628.000000
774.064575	622.000000
774.101318	611.000000
774.138000	613.000000
774.174744	637.000000
774.211487	640.000000
774.248108	624.000000
774.284851	638.000000
774.321594	650.000000
774.358276	632.000000
774.395020	640.000000
774.431702	654.000000
774.468384	660.000000
774.505127	663.000000
774.541809	666.000000
774.578491	653.000000
774.615234	658.000000
774.651917	655.000000
774.688599	671.000000
774.725342	669.000000
774.762024	674.000000
774.798706	661.000000
774.835449	658.000000
774.872070	670.000000
774.908813	684.000000
774.945496	692.000000
774.982178	682.000000
775.018860	678.000000
775.055542	663.000000
775.092224	681.000000
775.128967	693.000000
775.165588	711.000000
775.202271	698.000000
775.239014	703.000000
775.275635	693.000000
775.312317	694.000000
775.349060	710.000000
775.385681	716.000000
775.422363	710.000000
775.459045	704.000000
775.495667	704.000000
775.532410	703.000000
775.569092	715.000000
775.605713	733.000000
775.642395	733.000000
775.679016	733.000000
775.715698	714.000000
775.752380	712.000000
775.789001	709.000000
775.825684	720.000000
775.862366	727.000000
775.898987	741.000000
775.935669	718.000000
775.972351	733.000000
776.008972	719.000000
776.045654	751.000000
776.082336	741.000000
776.118958	747.000000
776.155640	740.000000
776.192322	739.000000
776.228882	723.000000
776.265564	737.000000
776.302185	751.000000
776.338867	758.000000
776.375488	745.000000
776.412109	755.000000
776.448792	748.000000
776.485413	765.000000
776.522034	758.000000
776.558716	750.000000
776.595337	755.000000
776.631958	750.000000
776.668579	744.000000
776.705261	750.000000
776.741882	749.000000
776.778503	756.000000
776.815186	766.000000
776.851746	759.000000
776.888367	754.000000
776.924988	759.000000
776.961609	750.000000
776.998291	757.000000
777.034851	748.000000
777.071472	767.000000
777.108154	755.000000
777.144714	758.000000
777.181335	778.000000
777.218018	767.000000
777.254578	797.000000
777.291199	790.000000
777.327759	778.000000
777.364380	805.000000
777.401062	812.000000
777.437622	823.000000
777.474243	814.000000
777.510864	827.000000
777.547424	836.000000
777.584045	841.000000
777.620667	841.000000
777.657227	830.000000
777.693848	841.000000
777.730469	858.000000
777.767029	845.000000
777.803650	846.000000
777.840271	847.000000
777.876831	841.000000
777.913452	856.000000
777.950012	840.000000
777.986633	834.000000
778.023193	839.000000
778.059753	826.000000
778.096375	825.000000
778.132996	862.000000
778.169556	851.000000
778.206116	857.000000
778.242737	854.000000
778.279297	866.000000
778.315857	851.000000
778.352478	869.000000
778.389038	872.000000
778.425598	881.000000
778.462219	886.000000
778.498718	899.000000
778.535339	885.000000
778.571838	890.000000
778.608459	898.000000
778.645020	880.000000
778.681580	902.000000
778.718140	894.000000
778.754761	883.000000
778.791260	891.000000
778.827881	900.000000
778.864441	888.000000
778.900940	900.000000
778.937561	895.000000
778.974121	907.000000
779.010620	891.000000
779.047241	899.000000
779.083801	923.000000
779.120300	931.000000
779.156860	940.000000
779.193359	945.000000
779.229980	955.000000
779.266541	956.000000
779.303040	952.000000
779.339600	961.000000
779.376160	967.000000
779.412659	972.000000
779.449219	971.000000
779.485779	976.000000
779.522278	964.000000
779.558838	972.000000
779.595398	957.000000
779.631897	959.000000
779.668457	966.000000
779.705017	981.000000
779.741516	971.000000
779.778076	941.000000
779.814575	947.000000
779.851074	953.000000
779.887634	957.000000
779.924133	967.000000
779.960693	956.000000
779.997253	954.000000
780.033691	961.000000
780.070251	955.000000
780.106812	985.000000
780.143250	1005.000000
780.179810	992.000000
780.216370	1008.000000
780.252808	1019.000000
780.289368	1018.000000
780.325867	1026.000000
780.362366	1026.000000
780.398865	1056.000000
780.435364	1045.000000
780.471863	1044.000000
780.508423	1023.000000
780.544861	1044.000000
780.581421	1046.000000
780.617920	1041.000000
780.654419	1051.000000
780.690918	1032.000000
780.727417	1017.000000
780.763916	1015.000000
780.800415	1042.000000
780.836914	1016.000000
780.873352	1037.000000
780.909912	1042.000000
780.946411	1038.000000
780.982849	1042.000000
781.019348	1021.000000
781.055786	1014.000000
781.092346	1011.000000
781.128845	1030.000000
781.165283	1011.000000
781.201782	1019.000000
781.238281	1021.000000
781.274719	1026.000000
781.311218	1027.000000
781.347717	1062.000000
781.384155	1046.000000
781.420654	1057.000000
781.457092	1067.000000
781.493591	1056.000000
781.530090	1054.000000
781.566528	1061.000000
781.602966	1062.000000
781.639465	1064.000000
781.675903	1032.000000
781.712402	1044.000000
781.748901	1041.000000
781.785278	1020.000000
781.821777	1005.000000
781.858276	994.000000
781.894714	981.000000
781.931152	948.000000
781.967651	930.000000
782.004089	904.000000
782.040527	886.000000
782.076965	889.000000
782.113403	857.000000
782.149902	825.000000
782.186340	788.000000
782.222778	787.000000
782.259277	747.000000
782.295654	728.000000
782.332092	726.000000
782.368591	685.000000
782.404968	670.000000
782.441467	655.000000
782.477905	638.000000
782.514282	609.000000
782.550781	607.000000
782.587219	573.000000
782.623596	562.000000
782.660095	545.000000
782.696472	531.000000
782.732910	507.000000
782.769348	488.000000
782.805786	491.000000
782.842224	471.000000
782.878662	454.000000
782.915039	442.000000
782.951477	442.000000
782.987915	425.000000
783.024292	432.000000
783.060730	428.000000
783.097168	419.000000
783.133545	424.000000
783.169983	422.000000
783.206421	420.000000
783.242798	425.000000
783.279236	427.000000
783.315613	427.000000
783.352051	434.000000
783.388489	431.000000
783.424866	422.000000
783.461304	436.000000
783.497681	445.000000
783.534058	443.000000
783.570496	441.000000
783.606934	435.000000
783.643250	435.000000
783.679687	427.000000
783.716125	419.000000
783.752441	416.000000
783.788879	430.000000
783.825317	441.000000
783.861633	440.000000
783.898071	441.000000
783.934448	455.000000
783.970825	467.000000
784.007263	465.000000
784.043579	491.000000
784.080017	497.000000
784.116394	502.000000
784.152710	512.000000
784.189148	520.000000
784.225525	535.000000
784.261902	541.000000
784.298279	549.000000
784.334656	551.000000
784.371033	540.000000
784.407410	544.000000
784.443787	539.000000
784.480164	543.000000
784.516541	546.000000
784.552856	571.000000
784.589233	569.000000
784.625610	578.000000
784.661987	623.000000
784.698364	653.000000
784.734741	674.000000
784.771057	716.000000
784.807434	739.000000
784.843811	787.000000
784.880127	803.000000
784.916504	865.000000
784.952881	922.000000
784.989197	983.000000
785.025574	1044.000000
785.061951	1067.000000
785.098267	1115.000000
785.134644	1159.000000
785.170959	1206.000000
785.207275	1276.000000
785.243652	1296.000000
785.279968	1305.000000
785.316345	1276.000000
785.352722	1265.000000
785.388977	1281.000000
785.425354	1279.000000
785.461731	1283.000000
785.498047	1271.000000
785.534363	1268.000000
785.570679	1207.000000
785.606995	1189.000000
785.643372	1189.000000
785.679687	1199.000000
785.716003	1189.000000
785.752380	1168.000000
785.788635	1169.000000
785.825012	1169.000000
785.861328	1165.000000
785.897644	1181.000000
785.933960	1228.000000
785.970337	1245.000000
786.006592	1265.000000
786.042908	1285.000000
786.079285	1273.000000
786.115540	1319.000000
786.151855	1370.000000
786.188171	1404.000000
786.224487	1430.000000
786.260803	1473.000000
786.297119	1466.000000
786.333435	1472.000000
786.369751	1487.000000
786.406006	1509.000000
786.442322	1490.000000
786.478638	1446.000000
786.514954	1402.000000
786.551270	1362.000000
786.587585	1347.000000
786.623840	1321.000000
786.660156	1323.000000
786.696472	1296.000000
786.732727	1257.000000
786.769043	1222.000000
786.805298	1205.000000
786.841614	1191.000000
786.877930	1231.000000
786.914124	1233.000000
786.950439	1252.000000
786.986755	1251.000000
787.023010	1251.000000
787.059326	1266.000000
787.095642	1293.000000
787.131836	1339.000000
787.168152	1359.000000
787.204468	1376.000000
787.240723	1389.000000
787.276978	1393.000000
787.313293	1404.000000
787.349548	1449.000000
787.385803	1469.000000
787.422058	1449.000000
787.458313	1471.000000
787.494629	1452.000000
787.530823	1436.000000
787.567139	1423.000000
787.603455	1423.000000
787.639648	1421.000000
787.675903	1431.000000
787.712219	1392.000000
787.748413	1350.000000
787.784729	1340.000000
787.820984	1338.000000
787.857178	1320.000000
787.893494	1312.000000
787.929749	1310.000000
787.965942	1293.000000
788.002258	1309.000000
788.038452	1308.000000
788.074707	1317.000000
788.110962	1338.000000
788.147217	1343.000000
788.183472	1351.000000
788.219727	1339.000000
788.255920	1317.000000
788.292175	1320.000000
788.328430	1329.000000
788.364624	1344.000000
788.400879	1355.000000
788.437134	1346.000000
788.473328	1334.000000
788.509583	1332.000000
788.545837	1340.000000
788.582031	1347.000000
788.618286	1371.000000
788.654480	1368.000000
788.690735	1366.000000
788.726990	1371.000000
788.763184	1388.000000
788.799377	1397.000000
788.835632	1424.000000
788.871826	1437.000000
788.908081	1426.000000
788.944336	1422.000000
788.980469	1433.000000
789.016724	1410.000000
789.052979	1428.000000
789.089111	1412.000000
789.125366	1410.000000
789.161621	1382.000000
789.197754	1376.000000
789.234009	1344.000000
789.270142	1341.000000
789.306396	1353.000000
789.342590	1353.000000
789.378784	1344.000000
789.414978	1309.000000
789.451233	1303.000000
789.487366	1304.000000
789.523621	1321.000000
789.559814	1319.000000
789.595947	1346.000000
789.632202	1364.000000
789.668335	1344.000000
789.704529	1350.000000
789.740784	1359.000000
789.776917	1373.000000
789.813110	1376.000000
789.849304	1402.000000
789.885498	1402.000000
789.921692	1394.000000
789.957886	1386.000000
789.994019	1405.000000
790.030212	1429.000000
790.066406	1452.000000
790.102539	1436.000000
790.138733	1425.000000
790.174927	1393.000000
790.211060	1390.000000
790.247253	1399.000000
790.283386	1397.000000
790.319580	1412.000000
790.355774	1378.000000
790.391907	1315.000000
790.428101	1203.000000
790.464294	1062.000000
790.500427	903.000000
790.536621	745.000000
790.572754	615.000000
790.608887	551.000000
790.645081	588.000000
790.681274	738.000000
790.717346	947.000000
790.753540	1144.000000
790.789734	1294.000000
790.825867	1360.000000
790.862000	1356.000000
790.898132	1339.000000
790.934265	1330.000000
790.970459	1336.000000
791.006592	1344.000000
791.042725	1368.000000
791.078918	1348.000000
791.114990	1324.000000
791.151184	1291.000000
791.187317	1295.000000
791.223389	1307.000000
791.259583	1307.000000
791.295715	1326.000000
791.331848	1317.000000
791.367981	1331.000000
791.404114	1321.000000
791.440247	1335.000000
791.476379	1357.000000
791.512451	1380.000000
791.548584	1393.000000
791.584778	1382.000000
791.620850	1402.000000
791.656982	1394.000000
791.693115	1399.000000
791.729187	1401.000000
791.765381	1405.000000
791.801514	1422.000000
791.837585	1408.000000
791.873718	1400.000000
791.909851	1432.000000
791.945923	1437.000000
791.982056	1452.000000
792.018188	1455.000000
792.054260	1436.000000
792.090393	1438.000000
792.126465	1422.000000
792.162598	1425.000000
792.198669	1433.000000
792.234741	1448.000000
792.270874	1460.000000
792.307007	1430.000000
792.343079	1420.000000
792.379150	1404.000000
792.415283	1391.000000
792.451355	1406.000000
792.487488	1396.000000
792.523560	1407.000000
792.559631	1391.000000
792.595764	1363.000000
792.631836	1364.000000
792.667908	1368.000000
792.703979	1353.000000
792.740051	1383.000000
792.776184	1382.000000
792.812256	1363.000000
792.848328	1376.000000
792.884399	1364.000000
792.920471	1361.000000
792.956543	1370.000000
792.992615	1394.000000
793.028748	1407.000000
793.064758	1389.000000
793.100830	1387.000000
793.136963	1397.000000
793.172974	1420.000000
793.209045	1429.000000
793.245178	1423.000000
793.281189	1398.000000
793.317261	1386.000000
793.353271	1370.000000
793.389404	1380.000000
793.425476	1404.000000
793.461487	1393.000000
793.497559	1410.000000
793.533630	1395.000000
793.569641	1364.000000
793.605713	1358.000000
793.641785	1362.000000
793.677795	1348.000000
793.713867	1354.000000
793.749878	1361.000000
793.785950	1389.000000
793.822021	1370.000000
793.858032	1357.000000
793.894104	1369.000000
793.930176	1374.000000
793.966187	1391.000000
794.002258	1373.000000
794.038269	1383.000000
794.074280	1355.000000
794.110352	1372.000000
794.146423	1385.000000
794.182373	1370.000000
794.218445	1385.000000
794.254517	1381.000000
794.290466	1382.000000
794.326538	1352.000000
794.362549	1359.000000
794.398560	1334.000000
794.434631	1347.000000
794.470581	1323.000000
794.506653	1305.000000
794.542664	1296.000000
794.578674	1285.000000
794.614685	1290.000000
794.650757	1289.000000
794.686707	1294.000000
794.722778	1288.000000
794.758789	1329.000000
794.794739	1319.000000
794.830811	1309.000000
794.866821	1323.000000
794.902771	1308.000000
794.938843	1322.000000
794.974792	1341.000000
795.010803	1363.000000
795.046814	1344.000000
795.082825	1310.000000
795.118835	1323.000000
795.154846	1327.000000
795.190796	1336.000000
795.226807	1331.000000
795.262817	1318.000000
795.298767	1301.000000
795.334778	1284.000000
795.370850	1267.000000
795.406799	1254.000000
795.442810	1257.000000
795.478821	1267.000000
795.514709	1256.000000
795.550720	1264.000000
795.586670	1218.000000
795.622681	1214.000000
795.658691	1196.000000
795.694641	1218.000000
795.730652	1214.000000
795.766663	1216.000000
795.802551	1202.000000
795.838562	1204.000000
795.874573	1194.000000
795.910522	1206.000000
795.946472	1192.000000
795.982483	1216.000000
796.018433	1186.000000
796.054382	1177.000000
796.090393	1174.000000
796.126282	1199.000000
796.162292	1200.000000
796.198242	1243.000000
796.234192	1251.000000
796.270203	1236.000000
796.306091	1227.000000
796.342041	1262.000000
796.378052	1231.000000
796.413940	1245.000000
796.449951	1251.000000
796.485901	1221.000000
796.521790	1214.000000
796.557800	1221.000000
796.593689	1206.000000
796.629639	1222.000000
796.665649	1241.000000
796.701599	1226.000000
796.737488	1232.000000
796.773437	1229.000000
796.809387	1225.000000
796.845337	1230.000000
796.881287	1261.000000
796.917175	1257.000000
796.953125	1266.000000
796.989075	1249.000000
797.024963	1244.000000
797.060913	1225.000000
797.096863	1236.000000
797.132751	1232.000000
797.168701	1225.000000
797.204590	1225.000000
797.240540	1197.000000
797.276489	1175.000000
797.312439	1172.000000
797.348328	1176.000000
797.384277	1198.000000
797.420166	1210.000000
797.456055	1206.000000
797.492004	1199.000000
797.527893	1171.000000
797.563843	1163.000000
797.599731	1168.000000
797.635620	1189.000000
797.671570	1191.000000
797.707520	1180.000000
797.743347	1174.000000
797.779297	1162.000000
797.815125	1175.000000
797.851074	1205.000000
797.887024	1217.000000
797.922913	1218.000000
797.958801	1224.000000
797.994690	1172.000000
798.030579	1178.000000
798.066467	1185.000000
798.102356	1191.000000
798.138245	1198.000000
798.174133	1187.000000
798.210083	1171.000000
798.245911	1183.000000
798.281799	1167.000000
798.317749	1163.000000
798.353577	1166.000000
798.389465	1186.000000
798.425293	1176.000000
798.461243	1152.000000
798.497131	1152.000000
798.532959	1156.000000
798.568848	1167.000000
798.604736	1175.000000
798.640564	1172.000000
798.676453	1157.000000
798.712402	1159.000000
798.748230	1126.000000
798.784119	1147.000000
798.820007	1151.000000
798.855835	1162.000000
798.891724	1160.000000
798.927551	1156.000000
798.963379	1135.000000
798.999268	1137.000000
799.035095	1152.000000
799.070984	1146.000000
799.106873	1151.000000
799.142700	1159.000000
799.178528	1134.000000
799.214417	1126.000000
799.250244	1144.000000
799.286133	1121.000000
799.321960	1157.000000
799.357788	1130.000000
799.393677	1138.000000
799.429504	1152.000000
799.465332	1123.000000
799.501221	1141.000000
799.537048	1151.000000
799.572876	1147.000000
799.608704	1134.000000
799.644531	1138.000000
799.680359	1123.000000
799.716248	1137.000000
799.752014	1141.000000
799.787903	1140.000000
799.823730	1142.000000
799.859558	1128.000000
799.895386	1130.000000
799.931213	1087.000000
799.967041	1093.000000
800.002869	1096.000000
800.038696	1117.000000
800.074463	1097.000000
800.110352	1084.000000
800.146179	1074.000000
800.181946	1080.000000
800.217773	1090.000000
800.253540	1093.000000
800.289429	1093.000000
800.325256	1077.000000
800.361023	1071.000000
800.396851	1064.000000
800.432678	1051.000000
800.468445	1047.000000
800.504272	1077.000000
800.540100	1065.000000
800.575867	1059.000000
800.611694	1053.000000
800.647461	1039.000000
800.683289	1027.000000
800.719116	1019.000000
800.754883	1035.000000
800.790649	1028.000000
800.826477	1025.000000
800.862244	1035.000000
800.898071	995.000000
800.933838	1005.000000
800.969604	1007.000000
801.005432	1008.000000
801.041199	1024.000000
801.076965	1014.000000
801.112793	991.000000
801.148560	969.000000
801.184326	961.000000
801.220154	971.000000
801.255859	972.000000
801.291687	977.000000
801.327454	989.000000
801.363281	963.000000
801.398987	962.000000
801.434814	944.000000
801.470520	952.000000
801.506287	947.000000
801.542114	946.000000
801.577820	934.000000
801.613647	935.000000
801.649414	926.000000
801.685120	917.000000
801.720886	937.000000
801.756714	935.000000
801.792419	925.000000
801.828186	923.000000
801.863892	923.000000
801.899719	913.000000
801.935486	906.000000
801.971252	912.000000
802.006958	925.000000
802.042725	903.000000
802.078430	909.000000
802.114197	895.000000
802.149963	914.000000
802.185669	909.000000
802.221436	917.000000
802.257202	903.000000
802.292908	900.000000
802.328674	902.000000
802.364441	900.000000
802.400146	887.000000
802.435913	886.000000
802.471558	891.000000
802.507324	888.000000
802.543091	888.000000
802.578796	891.000000
802.614502	892.000000
802.650269	912.000000
802.685974	879.000000
802.721741	901.000000
802.757446	899.000000
802.793152	892.000000
802.828918	892.000000
802.864624	892.000000
802.900330	882.000000
802.936035	883.000000
802.971802	890.000000
803.007446	890.000000
803.043213	873.000000
803.078857	869.000000
803.114624	855.000000
803.150330	859.000000
803.185974	843.000000
803.221741	867.000000
803.257446	851.000000
803.293152	849.000000
803.328857	845.000000
803.364563	839.000000
803.400208	841.000000
803.435974	848.000000
803.471680	823.000000
803.507324	836.000000
803.543030	823.000000
803.578735	814.000000
803.614441	821.000000
803.650146	835.000000
803.685791	808.000000
803.721497	820.000000
803.757202	818.000000
803.792847	811.000000
803.828552	801.000000
803.864258	793.000000
803.899902	801.000000
803.935608	788.000000
803.971313	782.000000
804.006958	781.000000
804.042664	772.000000
804.078308	783.000000
804.113953	777.000000
804.149658	795.000000
804.185364	779.000000
804.221008	786.000000
804.256714	784.000000
804.292297	766.000000
804.328003	756.000000
804.363708	745.000000
804.399292	751.000000
804.434998	754.000000
804.470703	740.000000
804.506287	756.000000
804.541992	734.000000
804.577637	756.000000
804.613281	747.000000
804.648926	725.000000
804.684570	732.000000
804.720215	732.000000
804.755920	726.000000
804.791565	717.000000
804.827209	731.000000
804.862854	734.000000
804.898437	734.000000
804.934143	741.000000
804.969788	730.000000
805.005371	730.000000
805.041077	728.000000
805.076721	727.000000
805.112305	731.000000
805.147949	729.000000
805.183655	725.000000
805.219238	717.000000
805.254883	704.000000
805.290466	717.000000
805.326111	717.000000
805.361755	717.000000
805.397400	725.000000
805.432983	730.000000
805.468628	721.000000
805.504211	714.000000
805.539856	717.000000
805.575500	714.000000
805.611084	705.000000
805.646729	711.000000
805.682373	709.000000
805.717957	712.000000
805.753601	707.000000
805.789246	701.000000
805.824768	720.000000
805.860413	726.000000
805.895996	707.000000
805.931641	701.000000
805.967224	707.000000
806.002869	695.000000
806.038452	689.000000
806.074036	701.000000
806.109619	695.000000
806.145264	695.000000
806.180847	684.000000
806.216431	691.000000
806.252014	675.000000
806.287659	670.000000
806.323181	676.000000
806.358826	680.000000
806.394409	671.000000
806.429993	661.000000
806.465576	675.000000
806.501160	653.000000
806.536743	654.000000
806.572327	663.000000
806.607910	666.000000
806.643494	682.000000
806.679077	657.000000
806.714661	645.000000
806.750244	646.000000
806.785828	641.000000
806.821350	643.000000
806.856934	648.000000
806.892517	640.000000
806.928101	632.000000
806.963684	644.000000
806.999268	633.000000
807.034790	626.000000
807.070374	626.000000
807.105896	618.000000
807.141479	620.000000
807.177063	617.000000
807.212585	606.000000
807.248169	603.000000
807.283752	615.000000
807.319275	605.000000
807.354858	615.000000
807.390381	617.000000
807.425903	605.000000
807.461487	611.000000
807.497070	593.000000
807.532593	603.000000
807.568115	597.000000
807.603699	590.000000
807.639221	582.000000
807.674744	584.000000
807.710266	584.000000
807.745850	583.000000
807.781372	585.000000
807.816895	590.000000
807.852417	595.000000
807.888000	593.000000
807.923523	579.000000
807.959045	589.000000
807.994629	569.000000
808.030090	569.000000
808.065613	572.000000
808.101135	574.000000
808.136658	572.000000
808.172241	566.000000
808.207764	563.000000
808.243225	563.000000
808.278809	556.000000
808.314270	569.000000
808.349792	555.000000
808.385315	550.000000
808.420837	546.000000
808.456360	560.000000
808.491882	557.000000
808.527344	558.000000
808.562866	566.000000
808.598389	563.000000
808.633850	551.000000
808.669434	546.000000
808.704895	553.000000
808.740417	566.000000
808.775940	548.000000
808.811462	541.000000
808.846924	538.000000
808.882385	531.000000
808.917847	540.000000
808.953369	535.000000
808.988892	522.000000
809.024353	542.000000
809.059875	536.000000
809.095398	529.000000
809.130798	517.000000
809.166321	520.000000
809.201843	521.000000
809.237305	511.000000
809.272766	519.000000
809.308228	511.000000
809.343750	514.000000
809.379211	509.000000
809.414734	511.000000
809.450134	524.000000
809.485657	503.000000
809.521118	513.000000
809.556580	505.000000
809.592102	498.000000
809.627502	497.000000
809.663025	490.000000
809.698486	491.000000
809.733887	488.000000
809.769409	496.000000
809.804871	480.000000
809.840271	489.000000
809.875793	481.000000
809.911194	487.000000
809.946655	480.000000
809.982178	475.000000
810.017639	478.000000
810.053040	477.000000
810.088501	471.000000
810.123901	479.000000
810.159424	468.000000
810.194885	465.000000
810.230286	480.000000
810.265747	475.000000
810.301208	464.000000
810.336609	470.000000
810.372070	456.000000
810.407532	455.000000
810.442932	462.000000
810.478394	469.000000
810.513794	455.000000
810.549255	459.000000
810.584717	446.000000
810.620117	452.000000
810.655518	454.000000
810.690979	460.000000
810.726379	445.000000
810.761841	447.000000
810.797302	447.000000
810.832642	434.000000
810.868103	449.000000
810.903564	442.000000
810.938904	441.000000
810.974365	429.000000
811.009827	452.000000
811.045166	435.000000
811.080627	435.000000
811.115967	436.000000
811.151428	441.000000
811.186829	437.000000
811.222229	434.000000
811.257629	424.000000
811.293091	435.000000
811.328430	439.000000
811.363892	428.000000
811.399292	426.000000
811.434631	421.000000
811.470093	437.000000
811.505493	419.000000
811.540833	413.000000
811.576294	421.000000
811.611694	415.000000
811.647034	420.000000
811.682434	417.000000
811.717773	421.000000
811.753235	424.000000
811.788635	425.000000
811.823975	421.000000
811.859375	431.000000
811.894775	407.000000
811.930115	410.000000
811.965515	408.000000
812.000916	418.000000
812.036255	412.000000
812.071655	416.000000
812.106995	404.000000
812.142395	405.000000
812.177795	405.000000
812.213196	411.000000
812.248474	406.000000
812.283875	401.000000
812.319214	409.000000
812.354614	412.000000
812.390015	396.000000
812.425293	393.000000
812.460693	397.000000
812.496094	394.000000
812.531433	385.000000
812.566772	395.000000
812.602173	395.000000
812.637451	390.000000
812.672852	387.000000
812.708191	391.000000
812.743530	385.000000
812.778931	381.000000
812.814270	381.000000
812.849609	388.000000
812.884949	375.000000
812.920227	363.000000
812.955627	391.000000
812.990967	384.000000
813.026306	376.000000
813.061646	365.000000
813.096985	364.000000
813.132324	356.000000
813.167664	369.000000
813.203003	366.000000
813.238281	357.000000
813.273682	359.000000
813.308960	353.000000
813.344299	353.000000
813.379639	363.000000
813.414978	352.000000
813.450256	357.000000
813.485596	355.000000
813.520874	355.000000
813.556213	350.000000
813.591614	355.000000
813.626831	341.000000
813.662170	350.000000
813.697510	352.000000
813.732788	339.000000
813.768127	347.000000
813.803467	351.000000
813.838745	342.000000
813.874084	357.000000
813.909363	346.000000
813.944641	345.000000
813.979980	339.000000
814.015320	341.000000
814.050598	339.000000
814.085876	342.000000
814.121155	335.000000
814.156494	342.000000
814.191772	341.000000
814.227051	331.000000
814.262390	340.000000
814.297668	333.000000
814.332947	335.000000
814.368225	328.000000
814.403564	328.000000
814.438782	326.000000
814.474121	332.000000
814.509338	329.000000
814.544617	331.000000
814.579956	331.000000
814.615173	343.000000
814.650513	329.000000
814.685791	329.000000
814.721008	326.000000
814.756348	329.000000
814.791626	329.000000
814.826843	326.000000
814.862122	328.000000
814.897400	323.000000
814.932678	320.000000
814.967957	327.000000
815.003235	323.000000
815.038452	310.000000
815.073730	314.000000
815.108948	323.000000
815.144226	313.000000
815.179504	324.000000
815.214722	313.000000
815.250000	311.000000
815.285278	309.000000
815.320496	311.000000
815.355774	309.000000
815.391052	310.000000
815.426270	302.000000
815.461487	309.000000
815.496765	292.000000
815.531982	297.000000
815.567261	304.000000
815.602539	308.000000
815.637695	301.000000
815.672974	303.000000
815.708191	305.000000
815.743408	305.000000
815.778687	298.000000
815.813904	306.000000
815.849121	290.000000
815.884399	301.000000
815.919556	290.000000
815.954834	294.000000
815.990051	295.000000
816.025269	299.000000
816.060486	288.000000
816.095703	299.000000
816.130920	293.000000
816.166199	292.000000
816.201416	288.000000
816.236572	302.000000
816.271851	289.000000
816.307007	297.000000
816.342224	276.000000
816.377441	289.000000
816.412659	288.000000
816.447876	290.000000
816.483093	288.000000
816.518250	287.000000
816.553467	278.000000
816.588745	285.000000
816.623901	277.000000
816.659119	271.000000
816.694275	279.000000
816.729492	278.000000
816.764709	309.000000
816.799927	275.000000
816.835083	278.000000
816.870300	267.000000
816.905457	278.000000
816.940674	279.000000
816.975830	269.000000
817.010986	259.000000
817.046204	270.000000
817.081421	265.000000
817.116577	272.000000
817.151733	268.000000
817.186951	279.000000
817.222107	268.000000
817.257324	275.000000
817.292419	270.000000
817.327637	266.000000
817.362854	263.000000
817.398010	265.000000
817.433167	270.000000
817.468323	268.000000
817.503479	262.000000
817.538635	270.000000
817.573853	266.000000
817.608948	263.000000
817.644165	264.000000
817.679321	266.000000
817.714478	260.000000
817.749634	264.000000
817.784790	275.000000
817.819946	269.000000
817.855103	246.000000
817.890198	260.000000
817.925415	245.000000
817.960571	260.000000
817.995667	261.000000
818.030823	259.000000
818.066040	255.000000
818.101135	263.000000
818.136292	256.000000
818.171448	254.000000
818.206543	256.000000
818.241699	259.000000
818.276855	254.000000
818.311951	252.000000
818.347107	249.000000
818.382263	256.000000
818.417358	259.000000
818.452515	266.000000
818.487610	265.000000
818.522766	252.000000
818.557922	261.000000
818.593018	260.000000
818.628113	256.000000
818.663269	250.000000
818.698364	259.000000
818.733521	250.000000
818.768677	255.000000
818.803711	245.000000
818.838867	244.000000
818.874023	251.000000
818.909058	243.000000
818.944214	246.000000
818.979370	252.000000
819.014404	246.000000
819.049561	242.000000
819.084595	240.000000
819.119751	241.000000
819.154846	247.000000
819.189941	245.000000
819.225037	242.000000
819.260193	240.000000
819.295227	234.000000
819.330322	237.000000
819.365479	230.000000
819.400513	266.000000
819.435608	230.000000
819.470764	230.000000
819.505798	227.000000
819.540894	238.000000
819.575989	235.000000
819.611084	242.000000
819.646179	243.000000
819.681213	242.000000
819.716309	234.000000
819.751404	237.000000
819.786438	237.000000
819.821533	228.000000
819.856628	236.000000
819.891663	237.000000
819.926758	242.000000
819.961853	235.000000
819.996887	230.000000
820.031982	238.000000
820.067017	231.000000
820.102112	262.000000
820.137207	227.000000
820.172302	240.000000
820.207275	228.000000
820.242371	224.000000
820.277405	231.000000
820.312500	230.000000
820.347534	228.000000
820.382568	236.000000
820.417664	229.000000
820.452759	227.000000
820.487732	225.000000
820.522827	226.000000
820.557861	227.000000
820.592896	226.000000
820.627930	232.000000
820.662964	223.000000
820.698059	232.000000
820.733093	222.000000
820.768127	233.000000
820.803162	224.000000
820.838196	228.000000
820.873230	235.000000
820.908264	225.000000
820.943298	218.000000
820.978333	228.000000
821.013367	227.000000
821.048401	232.000000
821.083435	227.000000
821.118469	214.000000
821.153503	227.000000
821.188477	221.000000
821.223511	215.000000
821.258484	224.000000
821.293579	220.000000
821.328613	215.000000
821.363647	215.000000
821.398621	217.000000
821.433655	212.000000
821.468628	228.000000
821.503662	214.000000
821.538696	223.000000
821.573669	213.000000
821.608704	228.000000
821.643677	216.000000
821.678650	223.000000
821.713684	228.000000
821.748718	213.000000
821.783691	215.000000
821.818726	218.000000
821.853638	219.000000
821.888672	214.000000
821.923706	214.000000
821.958618	214.000000
821.993652	209.000000
822.028687	215.000000
822.063599	230.000000
822.098633	218.000000
822.133667	210.000000
822.168579	209.000000
822.203613	214.000000
822.238586	212.000000
822.273560	218.000000
822.308533	208.000000
822.343567	215.000000
822.378479	211.000000
822.413452	213.000000
822.448425	209.000000
822.483398	221.000000
822.518372	217.000000
822.553345	207.000000
822.588318	216.000000
822.623291	208.000000
822.658203	206.000000
822.693237	214.000000
822.728210	207.000000
822.763123	211.000000
822.798096	201.000000
822.833069	208.000000
822.867981	201.000000
822.902954	212.000000
822.937927	211.000000
822.972900	221.000000
823.007874	197.000000
823.042725	215.000000
823.077698	211.000000
823.112671	200.000000
823.147583	205.000000
823.182556	210.000000
823.217529	213.000000
823.252441	202.000000
823.287415	216.000000
823.322388	209.000000
823.357239	207.000000
823.392212	214.000000
823.427185	211.000000
823.462097	203.000000
823.497009	205.000000
823.531982	204.000000
823.566895	209.000000
823.601807	199.000000
823.636719	203.000000
823.671631	210.000000
823.706604	205.000000
823.741455	205.000000
823.776428	201.000000
823.811340	206.000000
823.846252	212.000000
823.881165	213.000000
823.916138	205.000000
823.950989	209.000000
823.985901	197.000000
824.020813	200.000000
824.055725	202.000000
824.090637	199.000000
824.125610	202.000000
824.160461	202.000000
824.195374	203.000000
824.230225	202.000000
824.265198	197.000000
824.300110	198.000000
824.334961	211.000000
824.369873	191.000000
824.404785	202.000000
824.439636	201.000000
824.474548	193.000000
824.509460	187.000000
824.544312	201.000000
824.579224	197.000000
824.614075	205.000000
824.648987	194.000000
824.683899	201.000000
824.718811	196.000000
824.753662	203.000000
824.788574	203.000000
824.823364	199.000000
824.858276	195.000000
824.893188	203.000000
824.928040	200.000000
824.962952	194.000000
824.997803	203.000000
825.032654	202.000000
825.067566	200.000000
825.102417	199.000000
825.137268	195.000000
825.172119	195.000000
825.206970	193.000000
825.241882	202.000000
825.276733	190.000000
825.311646	193.000000
825.346436	189.000000
825.381348	190.000000
825.416138	201.000000
825.450989	194.000000
825.485901	189.000000
825.520691	192.000000
825.555542	193.000000
825.590454	193.000000
825.625244	190.000000
825.660095	201.000000
825.695007	200.000000
825.729797	197.000000
825.764648	194.000000
825.799438	193.000000
825.834290	195.000000
825.869202	188.000000
825.903992	196.000000
825.938843	187.000000
825.973694	190.000000
826.008484	201.000000
826.043335	192.000000
826.078186	185.000000
826.112976	201.000000
826.147827	197.000000
826.182678	201.000000
826.217468	181.000000
826.252319	200.000000
826.287109	183.000000
826.321899	201.000000
826.356750	188.000000
826.391541	190.000000
826.426392	193.000000
826.461182	195.000000
826.495972	188.000000
826.530823	184.000000
826.565613	190.000000
826.600403	189.000000
826.635254	194.000000
826.670044	186.000000
826.704834	178.000000
826.739685	185.000000
826.774475	190.000000
826.809265	192.000000
826.844055	189.000000
826.878906	195.000000
826.913635	196.000000
826.948425	191.000000
826.983215	193.000000
827.018005	197.000000
827.052856	185.000000
827.087585	194.000000
827.122375	184.000000
827.157227	193.000000
827.191956	205.000000
827.226746	189.000000
827.261536	196.000000
827.296265	189.000000
827.331116	186.000000
827.365906	189.000000
827.400635	187.000000
827.435425	182.000000
827.470215	194.000000
827.504944	191.000000
827.539734	197.000000
827.574463	185.000000
827.609253	197.000000
827.644043	187.000000
827.678772	194.000000
827.713562	184.000000
827.748352	187.000000
827.783081	181.000000
827.817871	188.000000
827.852600	184.000000
827.887329	188.000000
827.922119	176.000000
827.956848	192.000000
827.991638	202.000000
828.026367	190.000000
828.061157	187.000000
828.095886	190.000000
828.130615	203.000000
828.165344	179.000000
828.200073	185.000000
828.234863	188.000000
828.269592	188.000000
828.304321	190.000000
828.339111	185.000000
828.373779	184.000000
828.408569	189.000000
828.443298	193.000000
828.477966	187.000000
828.512756	186.000000
828.547424	181.000000
828.582214	185.000000
828.616943	181.000000
828.651672	186.000000
828.686340	189.000000
828.721130	184.000000
828.755798	185.000000
828.790527	184.000000
828.825256	186.000000
828.859924	192.000000
828.894714	194.000000
828.929443	192.000000
828.964111	184.000000
828.998840	194.000000
829.033569	182.000000
829.068237	185.000000
829.102966	187.000000
829.137634	186.000000
829.172363	189.000000
829.207092	187.000000
829.241821	179.000000
829.276489	181.000000
829.311157	190.000000
829.345825	185.000000
829.380554	192.000000
829.415283	181.000000
829.449951	178.000000
829.484619	191.000000
829.519348	195.000000
829.554016	181.000000
829.588745	186.000000
829.623413	176.000000
829.658081	198.000000
829.692749	176.000000
829.727417	191.000000
829.762146	181.000000
829.796814	183.000000
829.831482	180.000000
829.866150	185.000000
829.900879	178.000000
829.935486	191.000000
829.970154	182.000000
830.004883	194.000000
830.039490	185.000000
830.074219	183.000000
830.108887	183.000000
830.143494	185.000000
830.178223	178.000000
830.212891	189.000000
830.247498	184.000000
830.282166	189.000000
830.316772	189.000000
830.351501	187.000000
830.386169	185.000000
830.420776	182.000000
830.455444	188.000000
830.490112	182.000000
830.524719	179.000000
830.559387	187.000000
830.594055	188.000000
830.628662	186.000000
830.663330	187.000000
830.697998	195.000000
830.732605	186.000000
830.767273	189.000000
830.801941	183.000000
830.836487	193.000000
830.871155	193.000000
830.905762	186.000000
830.940430	178.000000
830.975098	180.000000
831.009644	184.000000
831.044312	193.000000
831.078979	190.000000
831.113525	176.000000
831.148193	187.000000
831.182861	177.000000
831.217407	187.000000
831.252075	196.000000
831.286621	185.000000
831.321289	178.000000
831.355896	184.000000
831.390564	191.000000
831.425110	184.000000
831.459778	189.000000
831.494324	198.000000
831.528931	185.000000
831.563599	190.000000
831.598145	175.000000
831.632751	185.000000
831.667419	184.000000
831.701965	187.000000
831.736572	185.000000
831.771179	181.000000
831.805786	178.000000
831.840393	187.000000
831.874939	175.000000
831.909546	192.000000
831.944153	171.000000
831.978760	183.000000
832.013306	177.000000
832.047913	191.000000
832.082458	188.000000
832.117065	181.000000
832.151672	190.000000
832.186218	184.000000
832.220825	186.000000
832.255432	176.000000
832.289978	184.000000
832.324585	190.000000
832.359192	184.000000
832.393677	180.000000
832.428284	185.000000
832.462830	183.000000
832.497437	183.000000
832.531982	189.000000
832.566589	185.000000
832.601135	190.000000
832.635681	179.000000
832.670227	183.000000
832.704773	194.000000
832.739380	187.000000
832.773926	179.000000
832.808472	180.000000
832.843079	189.000000
832.877563	183.000000
832.912170	182.000000
832.946716	174.000000
832.981201	188.000000
833.015808	187.000000
833.050293	188.000000
833.084839	177.000000
833.119446	186.000000
833.153992	182.000000
833.188477	185.000000
833.223022	183.000000
833.257568	189.000000
833.292114	185.000000
833.326660	196.000000
833.361145	179.000000
833.395691	178.000000
833.430237	183.000000
833.464783	185.000000
833.499329	179.000000
833.533875	177.000000
833.568359	185.000000
833.602905	189.000000
833.637390	187.000000
833.671875	179.000000
833.706421	179.000000
833.740906	180.000000
833.775452	171.000000
833.809998	179.000000
833.844482	188.000000
833.879028	183.000000
833.913513	176.000000
833.947998	185.000000
833.982544	184.000000
834.017090	179.000000
834.051514	170.000000
834.086060	189.000000
834.120544	179.000000
834.155029	188.000000
834.189575	188.000000
834.223999	188.000000
834.258545	185.000000
834.293030	186.000000
834.327515	187.000000
834.362000	180.000000
834.396545	190.000000
834.430969	182.000000
834.465454	190.000000
834.500000	174.000000
834.534424	186.000000
834.568970	176.000000
834.603455	179.000000
834.637878	176.000000
834.672363	184.000000
834.706909	182.000000
834.741333	185.000000
834.775818	175.000000
834.810242	179.000000
834.844727	179.000000
834.879211	184.000000
834.913635	184.000000
834.948181	187.000000
834.982666	183.000000
835.017090	184.000000
835.051575	187.000000
835.086060	178.000000
835.120483	186.000000
835.154907	188.000000
835.189331	182.000000
835.223816	188.000000
835.258301	173.000000
835.292786	181.000000
835.327209	191.000000
835.361694	180.000000
835.396057	178.000000
835.430542	188.000000
835.465027	182.000000
835.499390	184.000000
835.533875	207.000000
835.568359	180.000000
835.602722	180.000000
835.637207	188.000000
835.671692	179.000000
835.706055	205.000000
835.740540	185.000000
835.774902	187.000000
835.809387	186.000000
835.843811	178.000000
835.878235	186.000000
835.912659	182.000000
835.947083	180.000000
835.981506	183.000000
836.015930	173.000000
836.050354	187.000000
836.084778	190.000000
836.119202	189.000000
836.153625	199.000000
836.187988	180.000000
836.222473	184.000000
836.256897	187.000000
836.291260	181.000000
836.325684	189.000000
836.360046	186.000000
836.394470	181.000000
836.428894	193.000000
836.463318	181.000000
836.497681	189.000000
836.532104	187.000000
836.566467	189.000000
836.600891	183.000000
836.635315	188.000000
836.669678	184.000000
836.704102	189.000000
836.738525	182.000000
836.772888	175.000000
836.807251	177.000000
836.841675	187.000000
836.876038	175.000000
836.910461	179.000000
836.944763	187.000000
836.979187	183.000000
837.013611	182.000000
837.047974	176.000000
837.082336	194.000000
837.116699	185.000000
837.151062	186.000000
837.185486	179.000000
837.219849	177.000000
837.254211	192.000000
837.288574	184.000000
837.322937	176.000000
837.357300	172.000000
837.391663	197.000000
837.426086	188.000000
837.460388	189.000000
837.494751	190.000000
837.529114	181.000000
837.563477	187.000000
837.597839	183.000000
837.632141	183.000000
837.666565	185.000000
837.700928	188.000000
837.735229	184.000000
837.769592	189.000000
837.803955	186.000000
837.838257	182.000000
837.872620	181.000000
837.906982	190.000000
837.941284	185.000000
837.975647	186.000000
838.010010	190.000000
838.044312	184.000000
838.078674	185.000000
838.112976	185.000000
838.147339	187.000000
838.181702	184.000000
838.216003	190.000000
838.250366	184.000000
838.284668	186.000000
838.318970	180.000000
838.353333	182.000000
838.387634	185.000000
838.421936	184.000000
838.456299	184.000000
838.490601	192.000000
838.524902	188.000000
838.559265	186.000000
838.593567	185.000000
838.627869	175.000000
838.662170	188.000000
838.696472	173.000000
838.730774	180.000000
838.765137	187.000000
838.799377	173.000000
838.833740	181.000000
838.868042	191.000000
838.902283	175.000000
838.936646	194.000000
838.970947	182.000000
839.005188	188.000000
839.039551	179.000000
839.073792	188.000000
839.108093	183.000000
839.142395	191.000000
839.176697	176.000000
839.210937	185.000000
839.245300	196.000000
839.279541	176.000000
839.313843	184.000000
839.348145	190.000000
839.382385	185.000000
839.416687	190.000000
839.450989	191.000000
839.485229	183.000000
839.519531	184.000000
839.553833	190.000000
839.588013	183.000000
839.622314	185.000000
839.656555	188.000000
839.690857	186.000000
839.725159	180.000000
839.759460	185.000000
839.793640	185.000000
839.827942	186.000000
839.862183	180.000000
839.896423	181.000000
839.930725	197.000000
839.964966	192.000000
839.999207	191.000000
840.033508	190.000000
840.067688	182.000000
840.101990	187.000000
840.136230	188.000000
840.170471	196.000000
840.204712	175.000000
840.238953	181.000000
840.273193	188.000000
840.307434	185.000000
840.341736	182.000000
840.375916	177.000000
840.410217	183.000000
840.444397	186.000000
840.478638	185.000000
840.512878	184.000000
840.547119	188.000000
840.581360	182.000000
840.615601	192.000000
840.649780	194.000000
840.684021	184.000000
840.718262	188.000000
840.752441	192.000000
840.786682	185.000000
840.820862	183.000000
840.855103	192.000000
840.889343	186.000000
840.923584	183.000000
840.957764	184.000000
840.992004	184.000000
841.026184	197.000000
841.060425	180.000000
841.094666	182.000000
841.128845	183.000000
841.163025	189.000000
841.197266	189.000000
841.231445	186.000000
841.265686	189.000000
841.299866	181.000000
841.334045	191.000000
841.368286	186.000000
841.402405	196.000000
841.436646	187.000000
841.470825	183.000000
841.505005	181.000000
841.539185	177.000000
841.573425	180.000000
841.607544	186.000000
841.641785	183.000000
841.675964	182.000000
841.710144	185.000000
841.744324	180.000000
841.778503	179.000000
841.812683	181.000000
841.846863	190.000000
841.881042	194.000000
841.915222	183.000000
841.949402	200.000000
841.983521	171.000000
842.017700	186.000000
842.051880	181.000000
842.086060	189.000000
842.120239	182.000000
842.154419	182.000000
842.188538	181.000000
842.222717	185.000000
842.256897	193.000000
842.291016	186.000000
842.325195	188.000000
842.359375	196.000000
842.393494	193.000000
842.427673	187.000000
842.461853	183.000000
842.495911	193.000000
842.530090	182.000000
842.564209	187.000000
842.598389	185.000000
842.632568	191.000000
842.666626	186.000000
842.700806	183.000000
842.734985	179.000000
842.769043	187.000000
842.803223	183.000000
842.837402	182.000000
842.871460	181.000000
842.905640	197.000000
842.939697	179.000000
842.973877	187.000000
843.007996	191.000000
843.042175	199.000000
843.076233	180.000000
843.110413	188.000000
843.144470	195.000000
843.178589	188.000000
843.212769	181.000000
843.246826	189.000000
843.280945	188.000000
843.315125	185.000000
843.349182	186.000000
843.383301	189.000000
843.417419	201.000000
843.451538	186.000000
843.485657	182.000000
843.519714	177.000000
843.553833	187.000000
843.587952	181.000000
843.622070	181.000000
843.656128	189.000000
843.690247	186.000000
843.724304	183.000000
843.758423	189.000000
843.792542	180.000000
843.826599	186.000000
843.860718	183.000000
843.894836	179.000000
843.928894	183.000000
843.963013	186.000000
843.997070	177.000000
844.031128	178.000000
844.065247	189.000000
844.099304	189.000000
844.133362	187.000000
844.167480	185.000000
844.201599	188.000000
844.235596	186.000000
844.269714	187.000000
844.303711	188.000000
844.337830	175.000000
844.371948	190.000000
844.405945	183.000000
844.440063	182.000000
844.474121	196.000000
844.508118	183.000000
844.542236	184.000000
844.576294	187.000000
844.610352	177.000000
844.644409	186.000000
844.678406	180.000000
844.712524	190.000000
844.746582	193.000000
844.780640	188.000000
844.814636	187.000000
844.848755	199.000000
844.882751	183.000000
844.916809	189.000000
844.950867	188.000000
844.984863	197.000000
845.018921	183.000000
845.052979	182.000000
845.086975	192.000000
845.121033	179.000000
845.155090	182.000000
845.189087	192.000000
845.223145	185.000000
845.257141	181.000000
845.291199	187.000000
845.325256	193.000000
845.359253	190.000000
845.393250	197.000000
845.427307	183.000000
845.461304	185.000000
845.495361	185.000000
845.529358	190.000000
845.563354	188.000000
845.597412	179.000000
845.631409	193.000000
845.665405	186.000000
845.699463	191.000000
845.733459	183.000000
845.767456	195.000000
845.801453	180.000000
845.835449	191.000000
845.869446	189.000000
845.903503	188.000000
845.937439	181.000000
845.971497	190.000000
846.005493	179.000000
846.039429	190.000000
846.073486	198.000000
846.107483	182.000000
846.141418	179.000000
846.175476	186.000000
846.209473	191.000000
846.243408	183.000000
846.277405	185.000000
846.311401	183.000000
846.345337	185.000000
846.379395	192.000000
846.413330	187.000000
846.447327	198.000000
846.481323	182.000000
846.515259	186.000000
846.549255	185.000000
846.583252	192.000000
846.617187	182.000000
846.651184	187.000000
846.685120	184.000000
846.719055	195.000000
846.753052	193.000000
846.786987	187.000000
846.820984	180.000000
846.854980	190.000000
846.888916	180.000000
846.922852	186.000000
846.956848	192.000000
846.990723	181.000000
847.024719	191.000000
847.058716	185.000000
847.092590	193.000000
847.126587	188.000000
847.160522	183.000000
847.194458	186.000000
847.228455	181.000000
847.262390	179.000000
847.296265	188.000000
847.330261	190.000000
847.364136	183.000000
847.398132	177.000000
847.432068	186.000000
847.466003	180.000000
847.499939	183.000000
847.533875	186.000000
847.567749	186.000000
847.601746	184.000000
847.635681	191.000000
847.669556	173.000000
847.703491	194.000000
847.737427	198.000000
847.771301	180.000000
847.805237	185.000000
847.839233	187.000000
847.873108	185.000000
847.907043	189.000000
847.940918	190.000000
847.974854	187.000000
848.008789	188.000000
848.042664	190.000000
848.076538	185.000000
848.110474	185.000000
848.144348	185.000000
848.178284	181.000000
848.212219	189.000000
848.246094	184.000000
848.279968	186.000000
848.313904	189.000000
848.347778	185.000000
848.381653	180.000000
848.415588	184.000000
848.449463	184.000000
848.483337	188.000000
848.517212	195.000000
848.551086	190.000000
848.585022	182.000000
848.618835	195.000000
848.652771	182.000000
848.686646	181.000000
848.720520	197.000000
848.754395	186.000000
848.788330	189.000000
848.822144	190.000000
848.856018	185.000000
848.889954	197.000000
848.923767	179.000000
848.957642	185.000000
848.991577	186.000000
849.025391	184.000000
849.059265	183.000000
849.093079	184.000000
849.126953	179.000000
849.160828	190.000000
849.194641	183.000000
849.228577	185.000000
849.262451	182.000000
849.296265	184.000000
849.330139	181.000000
849.364014	188.000000
849.397827	187.000000
849.431702	186.000000
849.465515	189.000000
849.499329	178.000000
849.533203	179.000000
849.567078	178.000000
849.600891	184.000000
849.634766	184.000000
849.668518	190.000000
849.702393	186.000000
849.736267	179.000000
849.770020	197.000000
849.803894	187.000000
849.837769	190.000000
849.871521	188.000000
849.905396	193.000000
849.939270	179.000000
849.973022	187.000000
850.006897	189.000000
850.040710	189.000000
850.074524	188.000000
850.108337	190.000000
850.142151	189.000000
850.175964	194.000000
850.209778	181.000000
850.243530	176.000000
850.277405	192.000000
850.311218	187.000000
850.344971	187.000000
850.378845	196.000000
850.412659	183.000000
850.446411	188.000000
850.480225	185.000000
850.514038	191.000000
850.547791	185.000000
850.581665	186.000000
850.615417	183.000000
850.649231	186.000000
850.683044	188.000000
850.716858	181.000000
850.750610	186.000000
850.784424	185.000000
850.818176	185.000000
850.851929	183.000000
850.885742	185.000000
850.919495	182.000000
850.953308	193.000000
850.987122	195.000000
851.020874	179.000000
851.054626	175.000000
851.088440	190.000000
851.122192	186.000000
851.156006	185.000000
851.189697	187.000000
851.223511	180.000000
851.257263	191.000000
851.291077	189.000000
851.324829	183.000000
851.358582	185.000000
851.392334	187.000000
851.426086	181.000000
851.459900	196.000000
851.493591	186.000000
851.527344	183.000000
851.561157	186.000000
851.594849	192.000000
851.628662	185.000000
851.662415	195.000000
851.696106	192.000000
851.729858	186.000000
851.763611	182.000000
851.797363	191.000000
851.831116	182.000000
851.864868	192.000000
851.898560	192.000000
851.932312	181.000000
851.966064	188.000000
851.999817	189.000000
852.033569	184.000000
852.067261	191.000000
852.101013	179.000000
852.134766	184.000000
852.168457	178.000000
852.202209	192.000000
852.235901	183.000000
852.269592	191.000000
852.303345	193.000000
852.337036	190.000000
852.370789	187.000000
852.404541	193.000000
852.438171	177.000000
852.471924	185.000000
852.505676	181.000000
852.539307	186.000000
852.573059	182.000000
852.606812	188.000000
852.640442	186.000000
852.674194	191.000000
852.707886	193.000000
852.741577	196.000000
852.775269	178.000000
852.809021	188.000000
852.842651	187.000000
852.876404	194.000000
852.910034	186.000000
852.943787	193.000000
852.977478	186.000000
853.011108	184.000000
853.044861	181.000000
853.078552	195.000000
853.112183	189.000000
853.145874	187.000000
853.179626	179.000000
853.213257	189.000000
853.246948	181.000000
853.280640	196.000000
853.314270	189.000000
853.347961	192.000000
853.381653	192.000000
853.415283	196.000000
853.448975	186.000000
853.482605	188.000000
853.516296	188.000000
853.549988	182.000000
853.583618	190.000000
853.617310	187.000000
853.651001	187.000000
853.684631	183.000000
853.718323	186.000000
853.751953	192.000000
853.785583	183.000000
853.819275	191.000000
853.852966	188.000000
853.886536	176.000000
853.920227	183.000000
853.953918	190.000000
853.987488	185.000000
854.021179	190.000000
854.054749	195.000000
854.088440	188.000000
854.122131	184.000000
854.155701	184.000000
854.189331	184.000000
854.223022	187.000000
854.256592	187.000000
854.290283	181.000000
854.323914	191.000000
854.357483	186.000000
854.391174	188.000000
854.424744	192.000000
854.458374	188.000000
854.492065	191.000000
854.525696	187.000000
854.559265	188.000000
854.592896	194.000000
854.626465	185.000000
854.660095	182.000000
854.693787	185.000000
854.727356	187.000000
854.760986	186.000000
854.794617	187.000000
854.828186	180.000000
854.861816	190.000000
854.895447	192.000000
854.929016	190.000000
854.962585	186.000000
854.996155	195.000000
855.029785	188.000000
855.063416	187.000000
855.097046	189.000000
855.130615	184.000000
855.164185	192.000000
855.197754	186.000000
855.231384	194.000000
855.264954	184.000000
855.298523	194.000000
855.332153	187.000000
855.365723	195.000000
855.399292	183.000000
855.432922	189.000000
855.466492	186.000000
855.500061	184.000000
855.533630	181.000000
855.567200	190.000000
855.600769	190.000000
855.634338	195.000000
855.667969	187.000000
855.701477	183.000000
855.735046	179.000000
855.768616	179.000000
855.802185	192.000000
855.835754	202.000000
855.869324	175.000000
855.902893	186.000000
855.936401	193.000000
855.969971	191.000000
856.003540	179.000000
856.037109	191.000000
856.070618	184.000000
856.104187	187.000000
856.137695	184.000000
856.171265	177.000000
856.204834	188.000000
856.238403	197.000000
856.271912	180.000000
856.305481	190.000000
856.338989	177.000000
856.372559	188.000000
856.406128	189.000000
856.439636	194.000000
856.473145	182.000000
856.506653	195.000000
856.540222	189.000000
856.573792	194.000000
856.607300	193.000000
856.640808	180.000000
856.674377	182.000000
856.707825	218.000000
856.741394	190.000000
856.774902	180.000000
856.808472	179.000000
856.841980	192.000000
856.875488	191.000000
856.908936	184.000000
856.942505	189.000000
856.976013	187.000000
857.009521	185.000000
857.043030	187.000000
857.076477	186.000000
857.110046	190.000000
857.143555	188.000000
857.177063	190.000000
857.210571	188.000000
857.244080	183.000000
857.277527	188.000000
857.311035	186.000000
857.344543	189.000000
857.378052	184.000000
857.411499	195.000000
857.445068	195.000000
857.478516	186.000000
857.512024	179.000000
857.545532	184.000000
857.578979	188.000000
857.612427	185.000000
857.645874	181.000000
857.679382	187.000000
857.712891	192.000000
857.746399	187.000000
857.779846	191.000000
857.813354	193.000000
857.846741	187.000000
857.880249	182.000000
857.913757	185.000000
857.947266	190.000000
857.980652	186.000000
858.014160	183.000000
858.047546	182.000000
858.081055	186.000000
858.114563	193.000000
858.147949	185.000000
858.181458	184.000000
858.214844	189.000000
858.248352	178.000000
858.281799	188.000000
858.315308	200.000000
858.348694	193.000000
858.382141	193.000000
858.415588	193.000000
858.449036	192.000000
858.482483	186.000000
858.515930	186.000000
858.549377	187.000000
858.582825	191.000000
858.616211	192.000000
858.649658	189.000000
858.683105	182.000000
858.716553	185.000000
858.750000	182.000000
858.783386	185.000000
858.816833	182.000000
858.850281	193.000000
858.883728	189.000000
858.917114	189.000000
858.950562	192.000000
858.983948	198.000000
859.017395	190.000000
859.050781	191.000000
859.084167	176.000000
859.117615	180.000000
859.151062	191.000000
859.184448	187.000000
859.217834	179.000000
859.251282	184.000000
859.284668	177.000000
859.318054	181.000000
859.351440	180.000000
859.384888	193.000000
859.418274	173.000000
859.451721	180.000000
859.485046	185.000000
859.518494	188.000000
859.551819	182.000000
859.585266	192.000000
859.618652	188.000000
859.652039	188.000000
859.685425	180.000000
859.718811	182.000000
859.752197	178.000000
859.785583	194.000000
859.819031	189.000000
859.852356	190.000000
859.885742	181.000000
859.919067	184.000000
859.952454	179.000000
859.985901	187.000000
860.019287	181.000000
860.052612	0.000000
860.085999	0.000000
860.119324	0.000000
860.152710	0.000000
860.186096	0.000000
860.219421	0.000000
860.252808	0.000000
860.286133	0.000000
860.319519	0.000000
860.352905	0.000000
860.386292	0.000000
860.419617	0.000000
860.452942	0.000000
860.486267	0.000000
860.519653	0.000000
860.553040	0.000000
860.586365	0.000000
860.619690	0.000000
860.653076	0.000000
860.686340	0.000000
860.719727	0.000000
860.753113	0.000000
860.786377	0.000000
860.819763	0.000000
860.853027	0.000000
860.886414	0.000000
860.919739	0.000000
860.953125	0.000000
860.986389	0.000000
861.019714	0.000000
861.053040	0.000000
861.086365	0.000000
861.119690	0.000000
861.153076	0.000000
861.186340	0.000000
861.219666	0.000000
861.252930	0.000000
861.286316	0.000000
861.319641	0.000000
861.352905	0.000000
861.386230	0.000000
861.419495	0.000000
861.452820	0.000000
861.486145	0.000000
861.519470	0.000000
861.552734	0.000000
861.586060	0.000000
861.619324	0.000000
861.652649	0.000000
861.685974	0.000000
861.719238	0.000000
861.752563	0.000000
861.785828	0.000000
861.819092	0.000000
861.852417	0.000000
861.885742	0.000000
861.918945	0.000000
861.952271	0.000000
861.985535	0.000000
862.018799	0.000000
862.052124	0.000000
862.085449	0.000000
862.118652	0.000000
862.151978	0.000000
862.185181	0.000000
862.218506	0.000000
862.251770	0.000000
862.285034	0.000000
862.318298	0.000000
862.351562	0.000000
862.384827	0.000000
862.418091	0.000000
862.451355	0.000000
862.484619	0.000000
862.517883	0.000000
862.551086	0.000000
862.584351	0.000000
862.617676	0.000000
862.650940	0.000000
862.684143	0.000000
862.717407	0.000000
862.750610	0.000000
862.783875	0.000000
862.817139	0.000000
862.850342	0.000000
862.883606	0.000000
862.916870	0.000000
862.950073	0.000000
862.983337	0.000000
863.016602	0.000000
863.049805	0.000000
863.083069	0.000000
863.116211	0.000000
863.149475	0.000000
863.182739	0.000000
863.216003	0.000000
863.249146	0.000000
863.282410	0.000000
863.315613	0.000000
863.348816	0.000000
863.382080	0.000000
863.415222	0.000000
863.448486	0.000000
863.481689	0.000000
863.514893	0.000000
863.548157	0.000000
863.581360	0.000000
863.614502	0.000000
863.647766	0.000000
863.680908	0.000000
863.714172	0.000000
863.747375	0.000000
863.780579	0.000000
863.813721	0.000000
863.846985	0.000000
863.880127	0.000000
863.913330	0.000000
863.946533	0.000000
863.979675	0.000000
864.012939	0.000000
