Model Number: SPM-001-M   
Serial Number: 10090201
Firmware Version: 004.17.6
Exposure Time: 500000.000000us
Data Taken on: 27-08-2020 10:22:04.465
Wavelength	Amplitude
733.770752	0.000000
733.808716	0.000000
733.846619	0.000000
733.884583	0.000000
733.922546	0.000000
733.960449	0.000000
733.998413	0.000000
734.036377	0.000000
734.074219	0.000000
734.112183	0.000000
734.150085	0.000000
734.188049	0.000000
734.226013	0.000000
734.263916	0.000000
734.301819	0.000000
734.339783	0.000000
734.377686	0.000000
734.415588	0.000000
734.453552	0.000000
734.491455	0.000000
734.529419	0.000000
734.567322	0.000000
734.605225	0.000000
734.643127	0.000000
734.681091	0.000000
734.718994	0.000000
734.756897	0.000000
734.794800	0.000000
734.832703	0.000000
734.870667	0.000000
734.908508	0.000000
734.946472	0.000000
734.984375	0.000000
735.022278	0.000000
735.060181	0.000000
735.098083	0.000000
735.135986	0.000000
735.173889	0.000000
735.211792	0.000000
735.249695	0.000000
735.287598	0.000000
735.325439	0.000000
735.363403	0.000000
735.401306	0.000000
735.439148	0.000000
735.477051	0.000000
735.515015	0.000000
735.552856	0.000000
735.590759	0.000000
735.628662	0.000000
735.666504	0.000000
735.704407	0.000000
735.742310	0.000000
735.780212	0.000000
735.818115	0.000000
735.856018	0.000000
735.893860	0.000000
735.931763	0.000000
735.969604	0.000000
736.007507	0.000000
736.045410	0.000000
736.083252	0.000000
736.121094	0.000000
736.158997	0.000000
736.196838	0.000000
736.234741	0.000000
736.272644	0.000000
736.310486	0.000000
736.348389	0.000000
736.386230	0.000000
736.424072	0.000000
736.461975	0.000000
736.499878	0.000000
736.537720	0.000000
736.575562	0.000000
736.613403	0.000000
736.651306	0.000000
736.689148	0.000000
736.726990	0.000000
736.764893	0.000000
736.802734	0.000000
736.840576	0.000000
736.878418	0.000000
736.916321	0.000000
736.954102	0.000000
736.992004	0.000000
737.029846	0.000000
737.067688	0.000000
737.105530	0.000000
737.143372	0.000000
737.181213	0.000000
737.219116	0.000000
737.256897	0.000000
737.294739	0.000000
737.332642	0.000000
737.370422	0.000000
737.408325	0.000000
737.446167	0.000000
737.483948	0.000000
737.521790	0.000000
737.559692	0.000000
737.597473	0.000000
737.635315	0.000000
737.673157	0.000000
737.710999	0.000000
737.748840	0.000000
737.786621	0.000000
737.824463	0.000000
737.862305	0.000000
737.900085	0.000000
737.937927	0.000000
737.975769	0.000000
738.013550	0.000000
738.051392	0.000000
738.089233	0.000000
738.127014	0.000000
738.164856	0.000000
738.202698	0.000000
738.240479	0.000000
738.278320	0.000000
738.316162	0.000000
738.353943	0.000000
738.391785	0.000000
738.429565	0.000000
738.467407	0.000000
738.505188	0.000000
738.542969	0.000000
738.580811	0.000000
738.618652	0.000000
738.656372	0.000000
738.694214	0.000000
738.732056	0.000000
738.769836	0.000000
738.807617	0.000000
738.845459	0.000000
738.883240	0.000000
738.921021	0.000000
738.958862	0.000000
738.996582	0.000000
739.034424	0.000000
739.072205	0.000000
739.109985	0.000000
739.147827	0.000000
739.185547	0.000000
739.223389	0.000000
739.261169	0.000000
739.298889	0.000000
739.336731	0.000000
739.374512	0.000000
739.412292	0.000000
739.450073	0.000000
739.487854	0.000000
739.525635	0.000000
739.563416	0.000000
739.601135	0.000000
739.638977	0.000000
739.676758	0.000000
739.714478	0.000000
739.752258	0.000000
739.790100	0.000000
739.827820	0.000000
739.865601	0.000000
739.903381	0.000000
739.941101	0.000000
739.978882	187.000000
740.016724	187.000000
740.054443	188.000000
740.092224	183.000000
740.130005	184.000000
740.167725	179.000000
740.205505	181.000000
740.243225	193.000000
740.281006	181.000000
740.318787	175.000000
740.356506	192.000000
740.394287	187.000000
740.432068	179.000000
740.469727	182.000000
740.507507	187.000000
740.545288	188.000000
740.583008	188.000000
740.620789	183.000000
740.658569	177.000000
740.696228	185.000000
740.734009	188.000000
740.771790	177.000000
740.809509	191.000000
740.847229	179.000000
740.884949	185.000000
740.922729	178.000000
740.960449	183.000000
740.998169	180.000000
741.035950	182.000000
741.073669	185.000000
741.111389	187.000000
741.149170	194.000000
741.186890	192.000000
741.224609	185.000000
741.262329	189.000000
741.300110	192.000000
741.337769	183.000000
741.375549	178.000000
741.413208	182.000000
741.450989	176.000000
741.488708	183.000000
741.526367	181.000000
741.564148	192.000000
741.601868	184.000000
741.639526	184.000000
741.677307	185.000000
741.715027	188.000000
741.752686	177.000000
741.790466	191.000000
741.828186	186.000000
741.865845	179.000000
741.903564	176.000000
741.941345	178.000000
741.979004	177.000000
742.016724	191.000000
742.054382	190.000000
742.092102	188.000000
742.129822	178.000000
742.167480	184.000000
742.205200	180.000000
742.242920	191.000000
742.280640	192.000000
742.318359	180.000000
742.356079	182.000000
742.393738	194.000000
742.431396	180.000000
742.469116	188.000000
742.506775	177.000000
742.544495	187.000000
742.582214	189.000000
742.619873	187.000000
742.657593	191.000000
742.695251	191.000000
742.732971	187.000000
742.770630	187.000000
742.808289	189.000000
742.846008	180.000000
742.883728	188.000000
742.921326	187.000000
742.959045	185.000000
742.996765	185.000000
743.034424	186.000000
743.072083	183.000000
743.109802	183.000000
743.147400	179.000000
743.185120	189.000000
743.222839	180.000000
743.260437	192.000000
743.298157	180.000000
743.335754	179.000000
743.373474	183.000000
743.411133	176.000000
743.448792	185.000000
743.486450	187.000000
743.524170	179.000000
743.561768	185.000000
743.599487	191.000000
743.637146	200.000000
743.674744	182.000000
743.712463	186.000000
743.750122	187.000000
743.787720	188.000000
743.825439	186.000000
743.863037	186.000000
743.900696	180.000000
743.938416	210.000000
743.976013	179.000000
744.013672	193.000000
744.051331	188.000000
744.088928	197.000000
744.126587	190.000000
744.164307	186.000000
744.201904	183.000000
744.239563	187.000000
744.277222	186.000000
744.314819	186.000000
744.352478	189.000000
744.390137	191.000000
744.427734	184.000000
744.465393	182.000000
744.502991	182.000000
744.540649	193.000000
744.578308	185.000000
744.615906	181.000000
744.653564	177.000000
744.691223	191.000000
744.728821	183.000000
744.766418	188.000000
744.804077	189.000000
744.841675	180.000000
744.879333	180.000000
744.916992	183.000000
744.954529	182.000000
744.992187	187.000000
745.029785	182.000000
745.067444	183.000000
745.105042	189.000000
745.142639	184.000000
745.180298	195.000000
745.217896	186.000000
745.255493	184.000000
745.293152	185.000000
745.330750	189.000000
745.368347	190.000000
745.405945	193.000000
745.443604	183.000000
745.481140	185.000000
745.518799	179.000000
745.556396	187.000000
745.593994	184.000000
745.631592	188.000000
745.669189	177.000000
745.706787	184.000000
745.744385	180.000000
745.781982	187.000000
745.819580	176.000000
745.857178	181.000000
745.894775	185.000000
745.932373	188.000000
745.969971	188.000000
746.007568	176.000000
746.045166	190.000000
746.082764	189.000000
746.120300	190.000000
746.157898	188.000000
746.195557	185.000000
746.233093	180.000000
746.270691	190.000000
746.308228	189.000000
746.345825	194.000000
746.383423	190.000000
746.420959	185.000000
746.458557	183.000000
746.496155	181.000000
746.533691	185.000000
746.571289	180.000000
746.608887	184.000000
746.646423	189.000000
746.684021	190.000000
746.721619	183.000000
746.759155	187.000000
746.796753	182.000000
746.834351	179.000000
746.871826	183.000000
746.909424	190.000000
746.946960	187.000000
746.984558	184.000000
747.022156	184.000000
747.059631	189.000000
747.097229	189.000000
747.134827	179.000000
747.172363	194.000000
747.209900	188.000000
747.247498	183.000000
747.285034	190.000000
747.322571	189.000000
747.360168	185.000000
747.397644	179.000000
747.435242	184.000000
747.472778	192.000000
747.510315	181.000000
747.547913	184.000000
747.585388	192.000000
747.622925	185.000000
747.660522	174.000000
747.697998	185.000000
747.735596	185.000000
747.773132	181.000000
747.810669	183.000000
747.848206	188.000000
747.885742	179.000000
747.923279	181.000000
747.960815	184.000000
747.998352	189.000000
748.035889	192.000000
748.073425	188.000000
748.110901	183.000000
748.148437	186.000000
748.185974	183.000000
748.223511	193.000000
748.261047	189.000000
748.298584	187.000000
748.336060	185.000000
748.373596	188.000000
748.411133	204.000000
748.448608	180.000000
748.486145	189.000000
748.523682	193.000000
748.561218	194.000000
748.598755	187.000000
748.636292	188.000000
748.673706	188.000000
748.711243	196.000000
748.748718	183.000000
748.786255	189.000000
748.823792	181.000000
748.861267	179.000000
748.898804	188.000000
748.936340	187.000000
748.973816	179.000000
749.011292	195.000000
749.048828	188.000000
749.086304	189.000000
749.123840	196.000000
749.161316	185.000000
749.198792	193.000000
749.236328	191.000000
749.273743	185.000000
749.311279	183.000000
749.348816	189.000000
749.386230	187.000000
749.423767	168.000000
749.461304	189.000000
749.498718	187.000000
749.536255	194.000000
749.573730	194.000000
749.611206	192.000000
749.648682	181.000000
749.686218	183.000000
749.723633	191.000000
749.761169	187.000000
749.798645	180.000000
749.836060	187.000000
749.873596	178.000000
749.911011	188.000000
749.948547	192.000000
749.986023	185.000000
750.023437	181.000000
750.060913	180.000000
750.098450	180.000000
750.135864	189.000000
750.173340	185.000000
750.210815	188.000000
750.248291	180.000000
750.285767	187.000000
750.323242	191.000000
750.360657	187.000000
750.398132	185.000000
750.435608	185.000000
750.473022	187.000000
750.510498	182.000000
750.547974	179.000000
750.585449	182.000000
750.622925	176.000000
750.660339	194.000000
750.697815	188.000000
750.735291	183.000000
750.772644	191.000000
750.810120	186.000000
750.847595	186.000000
750.885010	179.000000
750.922485	195.000000
750.959961	182.000000
750.997375	188.000000
751.034851	185.000000
751.072266	191.000000
751.109680	176.000000
751.147156	193.000000
751.184570	190.000000
751.221985	189.000000
751.259460	178.000000
751.296875	186.000000
751.334290	181.000000
751.371765	193.000000
751.409180	189.000000
751.446594	191.000000
751.484070	185.000000
751.521423	187.000000
751.558899	187.000000
751.596375	194.000000
751.633728	192.000000
751.671204	200.000000
751.708618	179.000000
751.746033	189.000000
751.783447	178.000000
751.820801	185.000000
751.858276	189.000000
751.895691	186.000000
751.933105	183.000000
751.970520	185.000000
752.007935	184.000000
752.045349	193.000000
752.082764	187.000000
752.120178	186.000000
752.157532	187.000000
752.195007	187.000000
752.232422	189.000000
752.269775	190.000000
752.307190	191.000000
752.344543	179.000000
752.382019	185.000000
752.419434	185.000000
752.456787	188.000000
752.494202	186.000000
752.531616	189.000000
752.568970	185.000000
752.606384	191.000000
752.643799	190.000000
752.681152	195.000000
752.718567	186.000000
752.755981	179.000000
752.793335	186.000000
752.830750	181.000000
752.868164	191.000000
752.905518	181.000000
752.942932	187.000000
752.980225	185.000000
753.017639	188.000000
753.055054	191.000000
753.092407	190.000000
753.129822	190.000000
753.167175	193.000000
753.204529	189.000000
753.241943	177.000000
753.279358	184.000000
753.316650	185.000000
753.354065	186.000000
753.391479	185.000000
753.428772	194.000000
753.466187	189.000000
753.503479	183.000000
753.540894	187.000000
753.578308	182.000000
753.615601	180.000000
753.653015	187.000000
753.690369	184.000000
753.727722	182.000000
753.765076	181.000000
753.802490	183.000000
753.839783	179.000000
753.877136	189.000000
753.914551	199.000000
753.951843	183.000000
753.989258	192.000000
754.026611	187.000000
754.063904	192.000000
754.101257	183.000000
754.138611	179.000000
754.175964	184.000000
754.213318	199.000000
754.250610	180.000000
754.288025	183.000000
754.325378	176.000000
754.362671	192.000000
754.400024	188.000000
754.437378	195.000000
754.474670	196.000000
754.512085	188.000000
754.549438	187.000000
754.586731	185.000000
754.624084	188.000000
754.661438	182.000000
754.698730	191.000000
754.736084	181.000000
754.773376	181.000000
754.810730	187.000000
754.848083	183.000000
754.885315	188.000000
754.922668	175.000000
754.960022	181.000000
754.997314	187.000000
755.034668	186.000000
755.072021	185.000000
755.109253	183.000000
755.146606	192.000000
755.183960	190.000000
755.221252	193.000000
755.258545	186.000000
755.295898	190.000000
755.333191	193.000000
755.370544	185.000000
755.407776	184.000000
755.445129	190.000000
755.482422	193.000000
755.519714	185.000000
755.557068	182.000000
755.594360	178.000000
755.631653	197.000000
755.668945	197.000000
755.706299	190.000000
755.743530	202.000000
755.780884	197.000000
755.818176	190.000000
755.855408	197.000000
755.892761	197.000000
755.930054	190.000000
755.967346	191.000000
756.004639	192.000000
756.041870	189.000000
756.079224	193.000000
756.116516	187.000000
756.153748	191.000000
756.191040	197.000000
756.228394	194.000000
756.265625	187.000000
756.302917	191.000000
756.340210	189.000000
756.377441	195.000000
756.414795	200.000000
756.452087	193.000000
756.489319	187.000000
756.526611	192.000000
756.563843	196.000000
756.601135	199.000000
756.638428	201.000000
756.675659	190.000000
756.712952	197.000000
756.750244	189.000000
756.787476	195.000000
756.824768	194.000000
756.862061	185.000000
756.899292	237.000000
756.936584	194.000000
756.973816	197.000000
757.011047	204.000000
757.048340	193.000000
757.085632	190.000000
757.122864	208.000000
757.160156	190.000000
757.197327	199.000000
757.234619	201.000000
757.271912	192.000000
757.309082	202.000000
757.346375	191.000000
757.383667	198.000000
757.420837	197.000000
757.458130	203.000000
757.495422	192.000000
757.532593	201.000000
757.569885	194.000000
757.607117	194.000000
757.644348	202.000000
757.681580	212.000000
757.718811	185.000000
757.756042	197.000000
757.793335	197.000000
757.830505	202.000000
757.867798	195.000000
757.905029	189.000000
757.942200	198.000000
757.979492	194.000000
758.016724	200.000000
758.053894	193.000000
758.091187	215.000000
758.128418	197.000000
758.165588	197.000000
758.202820	206.000000
758.240112	200.000000
758.277283	204.000000
758.314514	205.000000
758.351685	193.000000
758.388916	209.000000
758.426147	207.000000
758.463379	208.000000
758.500610	197.000000
758.537842	197.000000
758.575012	206.000000
758.612244	199.000000
758.649475	210.000000
758.686646	194.000000
758.723877	207.000000
758.761108	209.000000
758.798279	201.000000
758.835510	203.000000
758.872742	206.000000
758.909851	206.000000
758.947083	201.000000
758.984253	208.000000
759.021484	209.000000
759.058716	204.000000
759.095886	209.000000
759.133057	204.000000
759.170288	204.000000
759.207458	205.000000
759.244690	214.000000
759.281860	210.000000
759.319031	203.000000
759.356262	203.000000
759.393433	203.000000
759.430603	201.000000
759.467773	203.000000
759.505005	210.000000
759.542175	215.000000
759.579346	206.000000
759.616516	206.000000
759.653687	211.000000
759.690918	203.000000
759.728027	209.000000
759.765259	206.000000
759.802429	209.000000
759.839539	208.000000
759.876770	215.000000
759.913940	217.000000
759.951111	207.000000
759.988281	212.000000
760.025452	203.000000
760.062561	206.000000
760.099792	216.000000
760.136963	218.000000
760.174072	204.000000
760.211243	201.000000
760.248413	201.000000
760.285583	213.000000
760.322754	219.000000
760.359863	216.000000
760.397034	215.000000
760.434204	211.000000
760.471375	212.000000
760.508545	211.000000
760.545715	210.000000
760.582825	208.000000
760.619995	213.000000
760.657166	207.000000
760.694275	215.000000
760.731445	216.000000
760.768555	214.000000
760.805664	216.000000
760.842834	210.000000
760.879944	219.000000
760.917114	215.000000
760.954285	213.000000
760.991394	210.000000
761.028564	222.000000
761.065674	217.000000
761.102783	214.000000
761.139954	222.000000
761.177124	218.000000
761.214172	220.000000
761.251343	222.000000
761.288452	218.000000
761.325562	221.000000
761.362732	217.000000
761.399841	221.000000
761.436951	223.000000
761.474121	219.000000
761.511169	222.000000
761.548340	229.000000
761.585449	231.000000
761.622559	227.000000
761.659668	227.000000
761.696838	225.000000
761.733887	229.000000
761.771057	223.000000
761.808167	226.000000
761.845276	231.000000
761.882385	242.000000
761.919434	224.000000
761.956604	247.000000
761.993713	228.000000
762.030762	238.000000
762.067871	229.000000
762.105042	231.000000
762.142090	235.000000
762.179199	233.000000
762.216309	232.000000
762.253418	246.000000
762.290527	241.000000
762.327637	241.000000
762.364685	228.000000
762.401794	236.000000
762.438904	236.000000
762.475952	231.000000
762.513062	226.000000
762.550110	235.000000
762.587219	243.000000
762.624329	241.000000
762.661377	237.000000
762.698486	239.000000
762.735596	242.000000
762.772644	237.000000
762.809753	226.000000
762.846863	237.000000
762.883911	242.000000
762.921021	245.000000
762.958069	235.000000
762.995117	249.000000
763.032227	245.000000
763.069336	238.000000
763.106323	240.000000
763.143433	243.000000
763.180481	246.000000
763.217590	251.000000
763.254639	242.000000
763.291687	245.000000
763.328735	248.000000
763.365845	245.000000
763.402893	235.000000
763.439941	249.000000
763.477051	253.000000
763.514038	253.000000
763.551147	248.000000
763.588196	253.000000
763.625244	247.000000
763.662292	258.000000
763.699402	261.000000
763.736389	254.000000
763.773499	262.000000
763.810486	246.000000
763.847534	259.000000
763.884644	260.000000
763.921631	252.000000
763.958679	265.000000
763.995728	263.000000
764.032776	263.000000
764.069824	254.000000
764.106873	253.000000
764.143860	262.000000
764.180969	250.000000
764.218018	264.000000
764.255005	254.000000
764.292053	258.000000
764.329102	272.000000
764.366089	277.000000
764.403137	265.000000
764.440125	262.000000
764.477173	269.000000
764.514221	268.000000
764.551208	268.000000
764.588257	260.000000
764.625305	263.000000
764.662292	269.000000
764.699341	278.000000
764.736389	271.000000
764.773376	286.000000
764.810425	279.000000
764.847473	280.000000
764.884399	276.000000
764.921448	286.000000
764.958435	284.000000
764.995483	277.000000
765.032532	289.000000
765.069458	269.000000
765.106506	275.000000
765.143555	267.000000
765.180481	281.000000
765.217529	286.000000
765.254578	273.000000
765.291504	281.000000
765.328552	283.000000
765.365540	283.000000
765.402527	292.000000
765.439575	280.000000
765.476501	277.000000
765.513550	280.000000
765.550537	285.000000
765.587463	293.000000
765.624512	281.000000
765.661499	272.000000
765.698486	290.000000
765.735474	280.000000
765.772461	289.000000
765.809448	296.000000
765.846436	293.000000
765.883423	301.000000
765.920410	289.000000
765.957397	286.000000
765.994385	291.000000
766.031311	309.000000
766.068359	298.000000
766.105286	292.000000
766.142273	296.000000
766.179260	291.000000
766.216187	287.000000
766.253174	289.000000
766.290161	293.000000
766.327148	302.000000
766.364136	302.000000
766.401123	318.000000
766.438049	295.000000
766.475037	315.000000
766.512024	308.000000
766.548950	327.000000
766.585937	314.000000
766.622864	315.000000
766.659790	316.000000
766.696777	305.000000
766.733704	315.000000
766.770691	310.000000
766.807678	327.000000
766.844604	327.000000
766.881531	319.000000
766.918518	331.000000
766.955444	338.000000
766.992432	327.000000
767.029358	333.000000
767.066284	332.000000
767.103271	336.000000
767.140198	360.000000
767.177124	351.000000
767.214050	334.000000
767.251038	339.000000
767.287964	336.000000
767.324890	328.000000
767.361816	337.000000
767.398743	352.000000
767.435730	343.000000
767.472595	349.000000
767.509583	354.000000
767.546509	341.000000
767.583374	350.000000
767.620361	341.000000
767.657288	343.000000
767.694214	345.000000
767.731140	346.000000
767.768066	348.000000
767.804993	353.000000
767.841919	346.000000
767.878845	355.000000
767.915710	361.000000
767.952698	359.000000
767.989563	361.000000
768.026489	359.000000
768.063416	349.000000
768.100281	354.000000
768.137207	366.000000
768.174133	368.000000
768.211060	378.000000
768.247986	368.000000
768.284912	361.000000
768.321777	366.000000
768.358704	366.000000
768.395630	368.000000
768.432495	360.000000
768.469421	370.000000
768.506348	377.000000
768.543152	377.000000
768.580078	376.000000
768.616943	371.000000
768.653870	385.000000
768.690796	389.000000
768.727661	377.000000
768.764587	387.000000
768.801453	372.000000
768.838318	378.000000
768.875244	396.000000
768.912109	400.000000
768.948975	394.000000
768.985901	392.000000
769.022766	380.000000
769.059631	392.000000
769.096558	392.000000
769.133362	396.000000
769.170288	396.000000
769.207214	397.000000
769.244019	397.000000
769.280945	405.000000
769.317810	415.000000
769.354675	413.000000
769.391541	415.000000
769.428406	415.000000
769.465271	421.000000
769.502136	415.000000
769.539062	422.000000
769.575867	424.000000
769.612732	415.000000
769.649597	419.000000
769.686462	412.000000
769.723328	421.000000
769.760193	416.000000
769.797058	423.000000
769.833923	428.000000
769.870728	426.000000
769.907593	429.000000
769.944519	431.000000
769.981323	430.000000
770.018188	439.000000
770.055054	429.000000
770.091858	437.000000
770.128723	451.000000
770.165588	449.000000
770.202393	429.000000
770.239258	445.000000
770.276062	445.000000
770.312927	448.000000
770.349792	450.000000
770.386597	444.000000
770.423462	457.000000
770.460327	462.000000
770.497131	446.000000
770.533997	449.000000
770.570862	462.000000
770.607605	461.000000
770.644470	459.000000
770.681335	465.000000
770.718140	466.000000
770.754944	452.000000
770.791809	461.000000
770.828613	461.000000
770.865479	464.000000
770.902222	476.000000
770.939087	463.000000
770.975952	461.000000
771.012695	455.000000
771.049561	469.000000
771.086365	460.000000
771.123169	464.000000
771.159973	465.000000
771.196838	471.000000
771.233582	476.000000
771.270447	469.000000
771.307251	480.000000
771.344055	473.000000
771.380859	473.000000
771.417664	472.000000
771.454468	485.000000
771.491272	484.000000
771.528076	481.000000
771.564880	476.000000
771.601685	497.000000
771.638428	486.000000
771.675293	487.000000
771.712097	471.000000
771.748840	490.000000
771.785645	485.000000
771.822449	490.000000
771.859253	485.000000
771.896057	499.000000
771.932861	513.000000
771.969604	510.000000
772.006409	499.000000
772.043213	513.000000
772.079956	506.000000
772.116760	501.000000
772.153503	509.000000
772.190308	528.000000
772.227112	521.000000
772.263855	514.000000
772.300659	512.000000
772.337463	533.000000
772.374207	521.000000
772.411011	520.000000
772.447754	523.000000
772.484497	528.000000
772.521301	526.000000
772.558105	525.000000
772.594849	534.000000
772.631592	548.000000
772.668396	541.000000
772.705139	539.000000
772.741882	541.000000
772.778625	555.000000
772.815430	560.000000
772.852173	560.000000
772.888916	569.000000
772.925720	572.000000
772.962463	580.000000
772.999207	562.000000
773.035950	576.000000
773.072754	585.000000
773.109436	589.000000
773.146240	585.000000
773.182922	581.000000
773.219727	578.000000
773.256470	575.000000
773.293152	572.000000
773.329956	584.000000
773.366699	588.000000
773.403381	583.000000
773.440186	582.000000
773.476929	596.000000
773.513611	592.000000
773.550354	599.000000
773.587158	599.000000
773.623840	586.000000
773.660583	592.000000
773.697327	603.000000
773.734009	591.000000
773.770813	616.000000
773.807495	610.000000
773.844238	616.000000
773.880981	618.000000
773.917664	601.000000
773.954407	620.000000
773.991150	631.000000
774.027832	631.000000
774.064575	626.000000
774.101318	623.000000
774.138000	625.000000
774.174744	621.000000
774.211487	643.000000
774.248108	628.000000
774.284851	645.000000
774.321594	641.000000
774.358276	635.000000
774.395020	653.000000
774.431702	665.000000
774.468384	655.000000
774.505127	657.000000
774.541809	667.000000
774.578491	653.000000
774.615234	658.000000
774.651917	660.000000
774.688599	668.000000
774.725342	685.000000
774.762024	668.000000
774.798706	664.000000
774.835449	664.000000
774.872070	683.000000
774.908813	686.000000
774.945496	688.000000
774.982178	696.000000
775.018860	677.000000
775.055542	679.000000
775.092224	676.000000
775.128967	697.000000
775.165588	712.000000
775.202271	697.000000
775.239014	700.000000
775.275635	699.000000
775.312317	687.000000
775.349060	709.000000
775.385681	717.000000
775.422363	718.000000
775.459045	713.000000
775.495667	707.000000
775.532410	704.000000
775.569092	720.000000
775.605713	732.000000
775.642395	724.000000
775.679016	729.000000
775.715698	728.000000
775.752380	714.000000
775.789001	700.000000
775.825684	715.000000
775.862366	727.000000
775.898987	733.000000
775.935669	723.000000
775.972351	727.000000
776.008972	724.000000
776.045654	748.000000
776.082336	748.000000
776.118958	740.000000
776.155640	749.000000
776.192322	746.000000
776.228882	734.000000
776.265564	748.000000
776.302185	745.000000
776.338867	761.000000
776.375488	745.000000
776.412109	748.000000
776.448792	750.000000
776.485413	765.000000
776.522034	765.000000
776.558716	758.000000
776.595337	766.000000
776.631958	757.000000
776.668579	750.000000
776.705261	761.000000
776.741882	753.000000
776.778503	775.000000
776.815186	769.000000
776.851746	782.000000
776.888367	770.000000
776.924988	766.000000
776.961609	753.000000
776.998291	758.000000
777.034851	758.000000
777.071472	772.000000
777.108154	769.000000
777.144714	772.000000
777.181335	782.000000
777.218018	776.000000
777.254578	796.000000
777.291199	797.000000
777.327759	793.000000
777.364380	801.000000
777.401062	795.000000
777.437622	823.000000
777.474243	818.000000
777.510864	841.000000
777.547424	821.000000
777.584045	827.000000
777.620667	835.000000
777.657227	832.000000
777.693848	841.000000
777.730469	845.000000
777.767029	846.000000
777.803650	858.000000
777.840271	834.000000
777.876831	842.000000
777.913452	863.000000
777.950012	843.000000
777.986633	840.000000
778.023193	842.000000
778.059753	836.000000
778.096375	843.000000
778.132996	857.000000
778.169556	845.000000
778.206116	852.000000
778.242737	853.000000
778.279297	875.000000
778.315857	858.000000
778.352478	872.000000
778.389038	885.000000
778.425598	878.000000
778.462219	892.000000
778.498718	888.000000
778.535339	879.000000
778.571838	895.000000
778.608459	897.000000
778.645020	893.000000
778.681580	906.000000
778.718140	910.000000
778.754761	888.000000
778.791260	891.000000
778.827881	907.000000
778.864441	893.000000
778.900940	906.000000
778.937561	902.000000
778.974121	912.000000
779.010620	907.000000
779.047241	923.000000
779.083801	925.000000
779.120300	939.000000
779.156860	959.000000
779.193359	954.000000
779.229980	958.000000
779.266541	959.000000
779.303040	962.000000
779.339600	973.000000
779.376160	965.000000
779.412659	978.000000
779.449219	980.000000
779.485779	981.000000
779.522278	976.000000
779.558838	972.000000
779.595398	975.000000
779.631897	964.000000
779.668457	972.000000
779.705017	996.000000
779.741516	976.000000
779.778076	968.000000
779.814575	969.000000
779.851074	962.000000
779.887634	971.000000
779.924133	993.000000
779.960693	980.000000
779.997253	982.000000
780.033691	985.000000
780.070251	960.000000
780.106812	1002.000000
780.143250	1006.000000
780.179810	1008.000000
780.216370	1021.000000
780.252808	1013.000000
780.289368	1008.000000
780.325867	1041.000000
780.362366	1046.000000
780.398865	1051.000000
780.435364	1046.000000
780.471863	1055.000000
780.508423	1045.000000
780.544861	1052.000000
780.581421	1077.000000
780.617920	1059.000000
780.654419	1064.000000
780.690918	1061.000000
780.727417	1054.000000
780.763916	1046.000000
780.800415	1052.000000
780.836914	1046.000000
780.873352	1077.000000
780.909912	1058.000000
780.946411	1065.000000
780.982849	1071.000000
781.019348	1080.000000
781.055786	1067.000000
781.092346	1086.000000
781.128845	1086.000000
781.165283	1087.000000
781.201782	1084.000000
781.238281	1079.000000
781.274719	1083.000000
781.311218	1100.000000
781.347717	1118.000000
781.384155	1106.000000
781.420654	1105.000000
781.457092	1129.000000
781.493591	1120.000000
781.530090	1127.000000
781.566528	1144.000000
781.602966	1132.000000
781.639465	1133.000000
781.675903	1110.000000
781.712402	1121.000000
781.748901	1120.000000
781.785278	1115.000000
781.821777	1117.000000
781.858276	1105.000000
781.894714	1116.000000
781.931152	1097.000000
781.967651	1110.000000
782.004089	1090.000000
782.040527	1107.000000
782.076965	1120.000000
782.113403	1096.000000
782.149902	1086.000000
782.186340	1078.000000
782.222778	1112.000000
782.259277	1084.000000
782.295654	1092.000000
782.332092	1077.000000
782.368591	1083.000000
782.404968	1104.000000
782.441467	1123.000000
782.477905	1127.000000
782.514282	1126.000000
782.550781	1155.000000
782.587219	1139.000000
782.623596	1136.000000
782.660095	1148.000000
782.696472	1135.000000
782.732910	1109.000000
782.769348	1054.000000
782.805786	993.000000
782.842224	901.000000
782.878662	806.000000
782.915039	724.000000
782.951477	686.000000
782.987915	648.000000
783.024292	689.000000
783.060730	722.000000
783.097168	792.000000
783.133545	878.000000
783.169983	963.000000
783.206421	1014.000000
783.242798	1070.000000
783.279236	1094.000000
783.315613	1122.000000
783.352051	1123.000000
783.388489	1124.000000
783.424866	1125.000000
783.461304	1140.000000
783.497681	1142.000000
783.534058	1149.000000
783.570496	1157.000000
783.606934	1178.000000
783.643250	1166.000000
783.679687	1169.000000
783.716125	1164.000000
783.752441	1178.000000
783.788879	1201.000000
783.825317	1209.000000
783.861633	1218.000000
783.898071	1207.000000
783.934448	1227.000000
783.970825	1235.000000
784.007263	1237.000000
784.043579	1263.000000
784.080017	1272.000000
784.116394	1246.000000
784.152710	1244.000000
784.189148	1246.000000
784.225525	1252.000000
784.261902	1247.000000
784.298279	1256.000000
784.334656	1232.000000
784.371033	1210.000000
784.407410	1197.000000
784.443787	1186.000000
784.480164	1191.000000
784.516541	1195.000000
784.552856	1213.000000
784.589233	1208.000000
784.625610	1180.000000
784.661987	1201.000000
784.698364	1197.000000
784.734741	1221.000000
784.771057	1233.000000
784.807434	1236.000000
784.843811	1243.000000
784.880127	1209.000000
784.916504	1247.000000
784.952881	1272.000000
784.989197	1295.000000
785.025574	1303.000000
785.061951	1309.000000
785.098267	1331.000000
785.134644	1332.000000
785.170959	1357.000000
785.207275	1382.000000
785.243652	1408.000000
785.279968	1392.000000
785.316345	1365.000000
785.352722	1341.000000
785.388977	1330.000000
785.425354	1324.000000
785.461731	1317.000000
785.498047	1314.000000
785.534363	1278.000000
785.570679	1231.000000
785.606995	1208.000000
785.643372	1201.000000
785.679687	1206.000000
785.716003	1195.000000
785.752380	1186.000000
785.788635	1166.000000
785.825012	1167.000000
785.861328	1177.000000
785.897644	1197.000000
785.933960	1230.000000
785.970337	1250.000000
786.006592	1290.000000
786.042908	1303.000000
786.079285	1306.000000
786.115540	1345.000000
786.151855	1389.000000
786.188171	1426.000000
786.224487	1468.000000
786.260803	1482.000000
786.297119	1476.000000
786.333435	1487.000000
786.369751	1503.000000
786.406006	1520.000000
786.442322	1490.000000
786.478638	1456.000000
786.514954	1430.000000
786.551270	1388.000000
786.587585	1380.000000
786.623840	1342.000000
786.660156	1327.000000
786.696472	1303.000000
786.732727	1261.000000
786.769043	1237.000000
786.805298	1218.000000
786.841614	1203.000000
786.877930	1236.000000
786.914124	1237.000000
786.950439	1266.000000
786.986755	1268.000000
787.023010	1265.000000
787.059326	1285.000000
787.095642	1312.000000
787.131836	1364.000000
787.168152	1374.000000
787.204468	1383.000000
787.240723	1396.000000
787.276978	1413.000000
787.313293	1445.000000
787.349548	1459.000000
787.385803	1492.000000
787.422058	1483.000000
787.458313	1479.000000
787.494629	1468.000000
787.530823	1454.000000
787.567139	1423.000000
787.603455	1431.000000
787.639648	1432.000000
787.675903	1429.000000
787.712219	1404.000000
787.748413	1366.000000
787.784729	1352.000000
787.820984	1329.000000
787.857178	1343.000000
787.893494	1321.000000
787.929749	1312.000000
787.965942	1318.000000
788.002258	1317.000000
788.038452	1321.000000
788.074707	1328.000000
788.110962	1351.000000
788.147217	1355.000000
788.183472	1344.000000
788.219727	1349.000000
788.255920	1321.000000
788.292175	1338.000000
788.328430	1375.000000
788.364624	1356.000000
788.400879	1360.000000
788.437134	1364.000000
788.473328	1350.000000
788.509583	1351.000000
788.545837	1363.000000
788.582031	1360.000000
788.618286	1386.000000
788.654480	1377.000000
788.690735	1370.000000
788.726990	1383.000000
788.763184	1396.000000
788.799377	1426.000000
788.835632	1424.000000
788.871826	1452.000000
788.908081	1449.000000
788.944336	1446.000000
788.980469	1455.000000
789.016724	1430.000000
789.052979	1432.000000
789.089111	1430.000000
789.125366	1423.000000
789.161621	1400.000000
789.197754	1386.000000
789.234009	1365.000000
789.270142	1349.000000
789.306396	1370.000000
789.342590	1357.000000
789.378784	1351.000000
789.414978	1345.000000
789.451233	1331.000000
789.487366	1323.000000
789.523621	1329.000000
789.559814	1345.000000
789.595947	1350.000000
789.632202	1346.000000
789.668335	1337.000000
789.704529	1361.000000
789.740784	1379.000000
789.776917	1388.000000
789.813110	1415.000000
789.849304	1446.000000
789.885498	1427.000000
789.921692	1407.000000
789.957886	1409.000000
789.994019	1404.000000
790.030212	1423.000000
790.066406	1462.000000
790.102539	1459.000000
790.138733	1437.000000
790.174927	1421.000000
790.211060	1402.000000
790.247253	1387.000000
790.283386	1430.000000
790.319580	1432.000000
790.355774	1391.000000
790.391907	1328.000000
790.428101	1208.000000
790.464294	1068.000000
790.500427	913.000000
790.536621	758.000000
790.572754	639.000000
790.608887	569.000000
790.645081	605.000000
790.681274	762.000000
790.717346	989.000000
790.753540	1218.000000
790.789734	1362.000000
790.825867	1414.000000
790.862000	1401.000000
790.898132	1393.000000
790.934265	1376.000000
790.970459	1378.000000
791.006592	1398.000000
791.042725	1421.000000
791.078918	1408.000000
791.114990	1367.000000
791.151184	1336.000000
791.187317	1341.000000
791.223389	1363.000000
791.259583	1373.000000
791.295715	1371.000000
791.331848	1406.000000
791.367981	1389.000000
791.404114	1384.000000
791.440247	1395.000000
791.476379	1436.000000
791.512451	1452.000000
791.548584	1481.000000
791.584778	1468.000000
791.620850	1464.000000
791.656982	1469.000000
791.693115	1450.000000
791.729187	1470.000000
791.765381	1492.000000
791.801514	1477.000000
791.837585	1487.000000
791.873718	1461.000000
791.909851	1473.000000
791.945923	1488.000000
791.982056	1488.000000
792.018188	1527.000000
792.054260	1514.000000
792.090393	1507.000000
792.126465	1496.000000
792.162598	1497.000000
792.198669	1498.000000
792.234741	1507.000000
792.270874	1513.000000
792.307007	1500.000000
792.343079	1470.000000
792.379150	1445.000000
792.415283	1449.000000
792.451355	1457.000000
792.487488	1447.000000
792.523560	1470.000000
792.559631	1472.000000
792.595764	1441.000000
792.631836	1414.000000
792.667908	1433.000000
792.703979	1432.000000
792.740051	1442.000000
792.776184	1444.000000
792.812256	1434.000000
792.848328	1417.000000
792.884399	1417.000000
792.920471	1408.000000
792.956543	1450.000000
792.992615	1463.000000
793.028748	1453.000000
793.064758	1458.000000
793.100830	1451.000000
793.136963	1460.000000
793.172974	1457.000000
793.209045	1467.000000
793.245178	1497.000000
793.281189	1452.000000
793.317261	1452.000000
793.353271	1421.000000
793.389404	1443.000000
793.425476	1441.000000
793.461487	1444.000000
793.497559	1448.000000
793.533630	1459.000000
793.569641	1412.000000
793.605713	1422.000000
793.641785	1401.000000
793.677795	1416.000000
793.713867	1417.000000
793.749878	1431.000000
793.785950	1438.000000
793.822021	1438.000000
793.858032	1416.000000
793.894104	1426.000000
793.930176	1445.000000
793.966187	1458.000000
794.002258	1445.000000
794.038269	1455.000000
794.074280	1431.000000
794.110352	1435.000000
794.146423	1429.000000
794.182373	1442.000000
794.218445	1437.000000
794.254517	1462.000000
794.290466	1447.000000
794.326538	1430.000000
794.362549	1417.000000
794.398560	1403.000000
794.434631	1396.000000
794.470581	1386.000000
794.506653	1365.000000
794.542664	1357.000000
794.578674	1333.000000
794.614685	1320.000000
794.650757	1344.000000
794.686707	1355.000000
794.722778	1365.000000
794.758789	1385.000000
794.794739	1373.000000
794.830811	1385.000000
794.866821	1365.000000
794.902771	1365.000000
794.938843	1379.000000
794.974792	1398.000000
795.010803	1411.000000
795.046814	1394.000000
795.082825	1380.000000
795.118835	1392.000000
795.154846	1385.000000
795.190796	1380.000000
795.226807	1396.000000
795.262817	1385.000000
795.298767	1339.000000
795.334778	1349.000000
795.370850	1314.000000
795.406799	1334.000000
795.442810	1324.000000
795.478821	1343.000000
795.514709	1311.000000
795.550720	1309.000000
795.586670	1262.000000
795.622681	1261.000000
795.658691	1265.000000
795.694641	1262.000000
795.730652	1276.000000
795.766663	1280.000000
795.802551	1271.000000
795.838562	1242.000000
795.874573	1234.000000
795.910522	1251.000000
795.946472	1244.000000
795.982483	1258.000000
796.018433	1247.000000
796.054382	1225.000000
796.090393	1232.000000
796.126282	1237.000000
796.162292	1254.000000
796.198242	1287.000000
796.234192	1309.000000
796.270203	1296.000000
796.306091	1289.000000
796.342041	1291.000000
796.378052	1294.000000
796.413940	1303.000000
796.449951	1316.000000
796.485901	1279.000000
796.521790	1275.000000
796.557800	1288.000000
796.593689	1270.000000
796.629639	1285.000000
796.665649	1308.000000
796.701599	1293.000000
796.737488	1291.000000
796.773437	1286.000000
796.809387	1295.000000
796.845337	1300.000000
796.881287	1299.000000
796.917175	1307.000000
796.953125	1317.000000
796.989075	1304.000000
797.024963	1286.000000
797.060913	1285.000000
797.096863	1299.000000
797.132751	1313.000000
797.168701	1291.000000
797.204590	1293.000000
797.240540	1242.000000
797.276489	1230.000000
797.312439	1216.000000
797.348328	1236.000000
797.384277	1260.000000
797.420166	1277.000000
797.456055	1257.000000
797.492004	1260.000000
797.527893	1234.000000
797.563843	1224.000000
797.599731	1231.000000
797.635620	1250.000000
797.671570	1245.000000
797.707520	1245.000000
797.743347	1230.000000
797.779297	1240.000000
797.815125	1240.000000
797.851074	1260.000000
797.887024	1270.000000
797.922913	1275.000000
797.958801	1276.000000
797.994690	1213.000000
798.030579	1222.000000
798.066467	1242.000000
798.102356	1238.000000
798.138245	1264.000000
798.174133	1250.000000
798.210083	1242.000000
798.245911	1235.000000
798.281799	1210.000000
798.317749	1209.000000
798.353577	1229.000000
798.389465	1240.000000
798.425293	1223.000000
798.461243	1219.000000
798.497131	1200.000000
798.532959	1199.000000
798.568848	1224.000000
798.604736	1224.000000
798.640564	1213.000000
798.676453	1223.000000
798.712402	1193.000000
798.748230	1190.000000
798.784119	1187.000000
798.820007	1208.000000
798.855835	1225.000000
798.891724	1227.000000
798.927551	1199.000000
798.963379	1195.000000
798.999268	1183.000000
799.035095	1205.000000
799.070984	1201.000000
799.106873	1204.000000
799.142700	1208.000000
799.178528	1189.000000
799.214417	1184.000000
799.250244	1182.000000
799.286133	1180.000000
799.321960	1201.000000
799.357788	1211.000000
799.393677	1189.000000
799.429504	1183.000000
799.465332	1193.000000
799.501221	1187.000000
799.537048	1187.000000
799.572876	1181.000000
799.608704	1190.000000
799.644531	1186.000000
799.680359	1181.000000
799.716248	1186.000000
799.752014	1199.000000
799.787903	1191.000000
799.823730	1193.000000
799.859558	1189.000000
799.895386	1172.000000
799.931213	1155.000000
799.967041	1128.000000
800.002869	1139.000000
800.038696	1154.000000
800.074463	1149.000000
800.110352	1145.000000
800.146179	1136.000000
800.181946	1136.000000
800.217773	1139.000000
800.253540	1146.000000
800.289429	1152.000000
800.325256	1141.000000
800.361023	1119.000000
800.396851	1121.000000
800.432678	1087.000000
800.468445	1090.000000
800.504272	1114.000000
800.540100	1104.000000
800.575867	1117.000000
800.611694	1105.000000
800.647461	1085.000000
800.683289	1073.000000
800.719116	1079.000000
800.754883	1079.000000
800.790649	1069.000000
800.826477	1058.000000
800.862244	1068.000000
800.898071	1043.000000
800.933838	1034.000000
800.969604	1051.000000
801.005432	1054.000000
801.041199	1063.000000
801.076965	1054.000000
801.112793	1031.000000
801.148560	1023.000000
801.184326	1014.000000
801.220154	1009.000000
801.255859	1021.000000
801.291687	1027.000000
801.327454	1016.000000
801.363281	1001.000000
801.398987	987.000000
801.434814	979.000000
801.470520	1003.000000
801.506287	988.000000
801.542114	987.000000
801.577820	987.000000
801.613647	969.000000
801.649414	969.000000
801.685120	968.000000
801.720886	981.000000
801.756714	970.000000
801.792419	989.000000
801.828186	961.000000
801.863892	964.000000
801.899719	968.000000
801.935486	954.000000
801.971252	952.000000
802.006958	954.000000
802.042725	956.000000
802.078430	942.000000
802.114197	942.000000
802.149963	973.000000
802.185669	944.000000
802.221436	964.000000
802.257202	957.000000
802.292908	951.000000
802.328674	956.000000
802.364441	937.000000
802.400146	941.000000
802.435913	947.000000
802.471558	960.000000
802.507324	929.000000
802.543091	933.000000
802.578796	946.000000
802.614502	934.000000
802.650269	937.000000
802.685974	939.000000
802.721741	931.000000
802.757446	956.000000
802.793152	922.000000
802.828918	929.000000
802.864624	933.000000
802.900330	924.000000
802.936035	925.000000
802.971802	937.000000
803.007446	937.000000
803.043213	903.000000
803.078857	915.000000
803.114624	886.000000
803.150330	896.000000
803.185974	892.000000
803.221741	891.000000
803.257446	887.000000
803.293152	893.000000
803.328857	888.000000
803.364563	873.000000
803.400208	871.000000
803.435974	893.000000
803.471680	887.000000
803.507324	862.000000
803.543030	872.000000
803.578735	860.000000
803.614441	859.000000
803.650146	870.000000
803.685791	852.000000
803.721497	859.000000
803.757202	846.000000
803.792847	849.000000
803.828552	839.000000
803.864258	841.000000
803.899902	830.000000
803.935608	826.000000
803.971313	824.000000
804.006958	816.000000
804.042664	810.000000
804.078308	805.000000
804.113953	813.000000
804.149658	827.000000
804.185364	815.000000
804.221008	832.000000
804.256714	807.000000
804.292297	809.000000
804.328003	791.000000
804.363708	797.000000
804.399292	788.000000
804.434998	785.000000
804.470703	785.000000
804.506287	790.000000
804.541992	783.000000
804.577637	785.000000
804.613281	781.000000
804.648926	777.000000
804.684570	781.000000
804.720215	771.000000
804.755920	765.000000
804.791565	753.000000
804.827209	766.000000
804.862854	763.000000
804.898437	758.000000
804.934143	768.000000
804.969788	757.000000
805.005371	774.000000
805.041077	764.000000
805.076721	761.000000
805.112305	749.000000
805.147949	755.000000
805.183655	755.000000
805.219238	752.000000
805.254883	754.000000
805.290466	761.000000
805.326111	750.000000
805.361755	751.000000
805.397400	756.000000
805.432983	758.000000
805.468628	751.000000
805.504211	749.000000
805.539856	751.000000
805.575500	751.000000
805.611084	749.000000
805.646729	737.000000
805.682373	744.000000
805.717957	751.000000
805.753601	753.000000
805.789246	735.000000
805.824768	729.000000
805.860413	749.000000
805.895996	748.000000
805.931641	741.000000
805.967224	738.000000
806.002869	727.000000
806.038452	736.000000
806.074036	733.000000
806.109619	727.000000
806.145264	724.000000
806.180847	725.000000
806.216431	708.000000
806.252014	714.000000
806.287659	710.000000
806.323181	710.000000
806.358826	705.000000
806.394409	689.000000
806.429993	692.000000
806.465576	702.000000
806.501160	680.000000
806.536743	678.000000
806.572327	698.000000
806.607910	706.000000
806.643494	702.000000
806.679077	691.000000
806.714661	677.000000
806.750244	669.000000
806.785828	664.000000
806.821350	671.000000
806.856934	676.000000
806.892517	674.000000
806.928101	657.000000
806.963684	664.000000
806.999268	663.000000
807.034790	645.000000
807.070374	658.000000
807.105896	644.000000
807.141479	653.000000
807.177063	650.000000
807.212585	635.000000
807.248169	637.000000
807.283752	657.000000
807.319275	635.000000
807.354858	631.000000
807.390381	637.000000
807.425903	637.000000
807.461487	634.000000
807.497070	630.000000
807.532593	623.000000
807.568115	615.000000
807.603699	624.000000
807.639221	613.000000
807.674744	613.000000
807.710266	612.000000
807.745850	613.000000
807.781372	621.000000
807.816895	619.000000
807.852417	615.000000
807.888000	605.000000
807.923523	610.000000
807.959045	604.000000
807.994629	596.000000
808.030090	596.000000
808.065613	602.000000
808.101135	600.000000
808.136658	598.000000
808.172241	598.000000
808.207764	601.000000
808.243225	593.000000
808.278809	588.000000
808.314270	597.000000
808.349792	586.000000
808.385315	583.000000
808.420837	589.000000
808.456360	587.000000
808.491882	589.000000
808.527344	585.000000
808.562866	598.000000
808.598389	579.000000
808.633850	584.000000
808.669434	568.000000
808.704895	571.000000
808.740417	582.000000
808.775940	577.000000
808.811462	569.000000
808.846924	558.000000
808.882385	561.000000
808.917847	557.000000
808.953369	559.000000
808.988892	550.000000
809.024353	548.000000
809.059875	563.000000
809.095398	553.000000
809.130798	539.000000
809.166321	543.000000
809.201843	539.000000
809.237305	539.000000
809.272766	545.000000
809.308228	527.000000
809.343750	533.000000
809.379211	534.000000
809.414734	532.000000
809.450134	546.000000
809.485657	528.000000
809.521118	533.000000
809.556580	525.000000
809.592102	528.000000
809.627502	519.000000
809.663025	517.000000
809.698486	509.000000
809.733887	509.000000
809.769409	501.000000
809.804871	499.000000
809.840271	506.000000
809.875793	503.000000
809.911194	515.000000
809.946655	504.000000
809.982178	502.000000
810.017639	506.000000
810.053040	501.000000
810.088501	499.000000
810.123901	485.000000
810.159424	494.000000
810.194885	486.000000
810.230286	494.000000
810.265747	489.000000
810.301208	485.000000
810.336609	489.000000
810.372070	475.000000
810.407532	470.000000
810.442932	478.000000
810.478394	484.000000
810.513794	479.000000
810.549255	477.000000
810.584717	483.000000
810.620117	467.000000
810.655518	476.000000
810.690979	478.000000
810.726379	473.000000
810.761841	457.000000
810.797302	470.000000
810.832642	462.000000
810.868103	471.000000
810.903564	458.000000
810.938904	457.000000
810.974365	453.000000
811.009827	466.000000
811.045166	456.000000
811.080627	449.000000
811.115967	449.000000
811.151428	456.000000
811.186829	451.000000
811.222229	454.000000
811.257629	439.000000
811.293091	451.000000
811.328430	459.000000
811.363892	449.000000
811.399292	447.000000
811.434631	444.000000
811.470093	446.000000
811.505493	440.000000
811.540833	449.000000
811.576294	442.000000
811.611694	441.000000
811.647034	430.000000
811.682434	435.000000
811.717773	442.000000
811.753235	448.000000
811.788635	436.000000
811.823975	441.000000
811.859375	442.000000
811.894775	421.000000
811.930115	425.000000
811.965515	428.000000
812.000916	431.000000
812.036255	428.000000
812.071655	429.000000
812.106995	419.000000
812.142395	428.000000
812.177795	427.000000
812.213196	427.000000
812.248474	427.000000
812.283875	415.000000
812.319214	418.000000
812.354614	425.000000
812.390015	414.000000
812.425293	409.000000
812.460693	419.000000
812.496094	410.000000
812.531433	406.000000
812.566772	401.000000
812.602173	409.000000
812.637451	405.000000
812.672852	404.000000
812.708191	410.000000
812.743530	405.000000
812.778931	393.000000
812.814270	393.000000
812.849609	401.000000
812.884949	393.000000
812.920227	396.000000
812.955627	405.000000
812.990967	393.000000
813.026306	397.000000
813.061646	388.000000
813.096985	379.000000
813.132324	378.000000
813.167664	369.000000
813.203003	385.000000
813.238281	371.000000
813.273682	373.000000
813.308960	364.000000
813.344299	371.000000
813.379639	369.000000
813.414978	370.000000
813.450256	366.000000
813.485596	371.000000
813.520874	360.000000
813.556213	369.000000
813.591614	363.000000
813.626831	356.000000
813.662170	359.000000
813.697510	366.000000
813.732788	352.000000
813.768127	362.000000
813.803467	356.000000
813.838745	358.000000
813.874084	359.000000
813.909363	359.000000
813.944641	361.000000
813.979980	352.000000
814.015320	352.000000
814.050598	355.000000
814.085876	354.000000
814.121155	348.000000
814.156494	350.000000
814.191772	351.000000
814.227051	340.000000
814.262390	350.000000
814.297668	353.000000
814.332947	346.000000
814.368225	339.000000
814.403564	346.000000
814.438782	343.000000
814.474121	349.000000
814.509338	338.000000
814.544617	351.000000
814.579956	338.000000
814.615173	350.000000
814.650513	343.000000
814.685791	337.000000
814.721008	341.000000
814.756348	349.000000
814.791626	339.000000
814.826843	339.000000
814.862122	334.000000
814.897400	333.000000
814.932678	337.000000
814.967957	323.000000
815.003235	333.000000
815.038452	324.000000
815.073730	322.000000
815.108948	330.000000
815.144226	329.000000
815.179504	330.000000
815.214722	319.000000
815.250000	311.000000
815.285278	320.000000
815.320496	317.000000
815.355774	315.000000
815.391052	322.000000
815.426270	320.000000
815.461487	316.000000
815.496765	307.000000
815.531982	304.000000
815.567261	313.000000
815.602539	310.000000
815.637695	312.000000
815.672974	305.000000
815.708191	313.000000
815.743408	318.000000
815.778687	307.000000
815.813904	311.000000
815.849121	305.000000
815.884399	307.000000
815.919556	298.000000
815.954834	302.000000
815.990051	306.000000
816.025269	302.000000
816.060486	307.000000
816.095703	297.000000
816.130920	303.000000
816.166199	298.000000
816.201416	304.000000
816.236572	302.000000
816.271851	302.000000
816.307007	303.000000
816.342224	291.000000
816.377441	296.000000
816.412659	288.000000
816.447876	294.000000
816.483093	295.000000
816.518250	298.000000
816.553467	284.000000
816.588745	296.000000
816.623901	283.000000
816.659119	278.000000
816.694275	287.000000
816.729492	281.000000
816.764709	313.000000
816.799927	284.000000
816.835083	288.000000
816.870300	275.000000
816.905457	285.000000
816.940674	284.000000
816.975830	274.000000
817.010986	282.000000
817.046204	273.000000
817.081421	273.000000
817.116577	275.000000
817.151733	284.000000
817.186951	273.000000
817.222107	282.000000
817.257324	275.000000
817.292419	276.000000
817.327637	269.000000
817.362854	275.000000
817.398010	263.000000
817.433167	270.000000
817.468323	271.000000
817.503479	271.000000
817.538635	277.000000
817.573853	277.000000
817.608948	272.000000
817.644165	266.000000
817.679321	271.000000
817.714478	261.000000
817.749634	272.000000
817.784790	281.000000
817.819946	276.000000
817.855103	257.000000
817.890198	266.000000
817.925415	255.000000
817.960571	270.000000
817.995667	265.000000
818.030823	267.000000
818.066040	269.000000
818.101135	269.000000
818.136292	262.000000
818.171448	257.000000
818.206543	266.000000
818.241699	264.000000
818.276855	267.000000
818.311951	262.000000
818.347107	257.000000
818.382263	266.000000
818.417358	270.000000
818.452515	262.000000
818.487610	271.000000
818.522766	261.000000
818.557922	266.000000
818.593018	263.000000
818.628113	259.000000
818.663269	259.000000
818.698364	260.000000
818.733521	259.000000
818.768677	260.000000
818.803711	253.000000
818.838867	249.000000
818.874023	254.000000
818.909058	253.000000
818.944214	253.000000
818.979370	257.000000
819.014404	247.000000
819.049561	249.000000
819.084595	255.000000
819.119751	238.000000
819.154846	249.000000
819.189941	246.000000
819.225037	250.000000
819.260193	245.000000
819.295227	247.000000
819.330322	239.000000
819.365479	238.000000
819.400513	265.000000
819.435608	235.000000
819.470764	234.000000
819.505798	234.000000
819.540894	238.000000
819.575989	241.000000
819.611084	246.000000
819.646179	249.000000
819.681213	247.000000
819.716309	239.000000
819.751404	239.000000
819.786438	248.000000
819.821533	233.000000
819.856628	240.000000
819.891663	242.000000
819.926758	249.000000
819.961853	241.000000
819.996887	231.000000
820.031982	236.000000
820.067017	237.000000
820.102112	272.000000
820.137207	235.000000
820.172302	246.000000
820.207275	232.000000
820.242371	231.000000
820.277405	231.000000
820.312500	235.000000
820.347534	231.000000
820.382568	239.000000
820.417664	227.000000
820.452759	231.000000
820.487732	223.000000
820.522827	231.000000
820.557861	224.000000
820.592896	235.000000
820.627930	229.000000
820.662964	225.000000
820.698059	233.000000
820.733093	230.000000
820.768127	234.000000
820.803162	233.000000
820.838196	224.000000
820.873230	228.000000
820.908264	221.000000
820.943298	223.000000
820.978333	227.000000
821.013367	227.000000
821.048401	232.000000
821.083435	234.000000
821.118469	220.000000
821.153503	229.000000
821.188477	221.000000
821.223511	224.000000
821.258484	222.000000
821.293579	223.000000
821.328613	220.000000
821.363647	224.000000
821.398621	208.000000
821.433655	224.000000
821.468628	239.000000
821.503662	222.000000
821.538696	225.000000
821.573669	216.000000
821.608704	223.000000
821.643677	223.000000
821.678650	225.000000
821.713684	232.000000
821.748718	221.000000
821.783691	223.000000
821.818726	219.000000
821.853638	221.000000
821.888672	217.000000
821.923706	216.000000
821.958618	214.000000
821.993652	216.000000
822.028687	221.000000
822.063599	232.000000
822.098633	223.000000
822.133667	215.000000
822.168579	218.000000
822.203613	214.000000
822.238586	213.000000
822.273560	214.000000
822.308533	213.000000
822.343567	211.000000
822.378479	218.000000
822.413452	212.000000
822.448425	211.000000
822.483398	217.000000
822.518372	218.000000
822.553345	208.000000
822.588318	222.000000
822.623291	207.000000
822.658203	211.000000
822.693237	211.000000
822.728210	208.000000
822.763123	209.000000
822.798096	206.000000
822.833069	212.000000
822.867981	211.000000
822.902954	211.000000
822.937927	214.000000
822.972900	215.000000
823.007874	199.000000
823.042725	209.000000
823.077698	219.000000
823.112671	208.000000
823.147583	208.000000
823.182556	209.000000
823.217529	217.000000
823.252441	207.000000
823.287415	221.000000
823.322388	209.000000
823.357239	212.000000
823.392212	213.000000
823.427185	212.000000
823.462097	205.000000
823.497009	210.000000
823.531982	205.000000
823.566895	210.000000
823.601807	201.000000
823.636719	202.000000
823.671631	212.000000
823.706604	205.000000
823.741455	214.000000
823.776428	200.000000
823.811340	209.000000
823.846252	217.000000
823.881165	214.000000
823.916138	204.000000
823.950989	218.000000
823.985901	203.000000
824.020813	204.000000
824.055725	204.000000
824.090637	200.000000
824.125610	206.000000
824.160461	207.000000
824.195374	202.000000
824.230225	209.000000
824.265198	194.000000
824.300110	199.000000
824.334961	213.000000
824.369873	197.000000
824.404785	205.000000
824.439636	208.000000
824.474548	189.000000
824.509460	193.000000
824.544312	203.000000
824.579224	204.000000
824.614075	205.000000
824.648987	198.000000
824.683899	197.000000
824.718811	201.000000
824.753662	203.000000
824.788574	205.000000
824.823364	197.000000
824.858276	196.000000
824.893188	204.000000
824.928040	211.000000
824.962952	201.000000
824.997803	202.000000
825.032654	201.000000
825.067566	203.000000
825.102417	199.000000
825.137268	202.000000
825.172119	196.000000
825.206970	200.000000
825.241882	201.000000
825.276733	195.000000
825.311646	197.000000
825.346436	192.000000
825.381348	190.000000
825.416138	202.000000
825.450989	194.000000
825.485901	188.000000
825.520691	192.000000
825.555542	192.000000
825.590454	194.000000
825.625244	192.000000
825.660095	209.000000
825.695007	201.000000
825.729797	198.000000
825.764648	191.000000
825.799438	196.000000
825.834290	198.000000
825.869202	195.000000
825.903992	195.000000
825.938843	191.000000
825.973694	190.000000
826.008484	209.000000
826.043335	191.000000
826.078186	184.000000
826.112976	199.000000
826.147827	202.000000
826.182678	200.000000
826.217468	187.000000
826.252319	197.000000
826.287109	187.000000
826.321899	200.000000
826.356750	194.000000
826.391541	189.000000
826.426392	196.000000
826.461182	193.000000
826.495972	187.000000
826.530823	182.000000
826.565613	195.000000
826.600403	187.000000
826.635254	198.000000
826.670044	183.000000
826.704834	183.000000
826.739685	183.000000
826.774475	191.000000
826.809265	190.000000
826.844055	190.000000
826.878906	199.000000
826.913635	195.000000
826.948425	194.000000
826.983215	199.000000
827.018005	198.000000
827.052856	187.000000
827.087585	197.000000
827.122375	184.000000
827.157227	189.000000
827.191956	205.000000
827.226746	183.000000
827.261536	195.000000
827.296265	187.000000
827.331116	190.000000
827.365906	193.000000
827.400635	189.000000
827.435425	183.000000
827.470215	195.000000
827.504944	191.000000
827.539734	193.000000
827.574463	191.000000
827.609253	196.000000
827.644043	189.000000
827.678772	194.000000
827.713562	189.000000
827.748352	185.000000
827.783081	183.000000
827.817871	187.000000
827.852600	188.000000
827.887329	184.000000
827.922119	180.000000
827.956848	188.000000
827.991638	201.000000
828.026367	189.000000
828.061157	187.000000
828.095886	184.000000
828.130615	207.000000
828.165344	177.000000
828.200073	191.000000
828.234863	181.000000
828.269592	190.000000
828.304321	190.000000
828.339111	190.000000
828.373779	185.000000
828.408569	192.000000
828.443298	193.000000
828.477966	186.000000
828.512756	184.000000
828.547424	185.000000
828.582214	185.000000
828.616943	184.000000
828.651672	186.000000
828.686340	193.000000
828.721130	183.000000
828.755798	185.000000
828.790527	188.000000
828.825256	186.000000
828.859924	188.000000
828.894714	195.000000
828.929443	193.000000
828.964111	185.000000
828.998840	192.000000
829.033569	183.000000
829.068237	186.000000
829.102966	185.000000
829.137634	188.000000
829.172363	185.000000
829.207092	186.000000
829.241821	184.000000
829.276489	183.000000
829.311157	184.000000
829.345825	182.000000
829.380554	191.000000
829.415283	185.000000
829.449951	181.000000
829.484619	198.000000
829.519348	190.000000
829.554016	185.000000
829.588745	185.000000
829.623413	183.000000
829.658081	195.000000
829.692749	181.000000
829.727417	188.000000
829.762146	182.000000
829.796814	181.000000
829.831482	184.000000
829.866150	183.000000
829.900879	186.000000
829.935486	188.000000
829.970154	180.000000
830.004883	192.000000
830.039490	188.000000
830.074219	177.000000
830.108887	191.000000
830.143494	183.000000
830.178223	178.000000
830.212891	185.000000
830.247498	186.000000
830.282166	185.000000
830.316772	190.000000
830.351501	181.000000
830.386169	183.000000
830.420776	183.000000
830.455444	185.000000
830.490112	179.000000
830.524719	179.000000
830.559387	189.000000
830.594055	188.000000
830.628662	183.000000
830.663330	188.000000
830.697998	192.000000
830.732605	187.000000
830.767273	192.000000
830.801941	186.000000
830.836487	193.000000
830.871155	186.000000
830.905762	187.000000
830.940430	178.000000
830.975098	184.000000
831.009644	185.000000
831.044312	192.000000
831.078979	185.000000
831.113525	177.000000
831.148193	183.000000
831.182861	185.000000
831.217407	186.000000
831.252075	206.000000
831.286621	178.000000
831.321289	180.000000
831.355896	182.000000
831.390564	192.000000
831.425110	184.000000
831.459778	191.000000
831.494324	193.000000
831.528931	188.000000
831.563599	184.000000
831.598145	177.000000
831.632751	182.000000
831.667419	181.000000
831.701965	184.000000
831.736572	186.000000
831.771179	176.000000
831.805786	181.000000
831.840393	186.000000
831.874939	177.000000
831.909546	184.000000
831.944153	175.000000
831.978760	183.000000
832.013306	183.000000
832.047913	182.000000
832.082458	191.000000
832.117065	179.000000
832.151672	190.000000
832.186218	188.000000
832.220825	189.000000
832.255432	175.000000
832.289978	184.000000
832.324585	189.000000
832.359192	185.000000
832.393677	182.000000
832.428284	187.000000
832.462830	181.000000
832.497437	183.000000
832.531982	188.000000
832.566589	183.000000
832.601135	191.000000
832.635681	176.000000
832.670227	184.000000
832.704773	192.000000
832.739380	187.000000
832.773926	182.000000
832.808472	185.000000
832.843079	186.000000
832.877563	190.000000
832.912170	179.000000
832.946716	180.000000
832.981201	188.000000
833.015808	188.000000
833.050293	181.000000
833.084839	185.000000
833.119446	181.000000
833.153992	188.000000
833.188477	181.000000
833.223022	183.000000
833.257568	186.000000
833.292114	191.000000
833.326660	192.000000
833.361145	184.000000
833.395691	172.000000
833.430237	185.000000
833.464783	187.000000
833.499329	179.000000
833.533875	179.000000
833.568359	189.000000
833.602905	184.000000
833.637390	189.000000
833.671875	181.000000
833.706421	179.000000
833.740906	181.000000
833.775452	176.000000
833.809998	180.000000
833.844482	195.000000
833.879028	184.000000
833.913513	181.000000
833.947998	187.000000
833.982544	181.000000
834.017090	180.000000
834.051514	177.000000
834.086060	191.000000
834.120544	183.000000
834.155029	187.000000
834.189575	181.000000
834.223999	187.000000
834.258545	186.000000
834.293030	187.000000
834.327515	181.000000
834.362000	187.000000
834.396545	190.000000
834.430969	184.000000
834.465454	188.000000
834.500000	181.000000
834.534424	186.000000
834.568970	176.000000
834.603455	176.000000
834.637878	180.000000
834.672363	187.000000
834.706909	189.000000
834.741333	183.000000
834.775818	184.000000
834.810242	179.000000
834.844727	181.000000
834.879211	177.000000
834.913635	186.000000
834.948181	184.000000
834.982666	185.000000
835.017090	183.000000
835.051575	186.000000
835.086060	180.000000
835.120483	192.000000
835.154907	187.000000
835.189331	185.000000
835.223816	188.000000
835.258301	177.000000
835.292786	181.000000
835.327209	193.000000
835.361694	179.000000
835.396057	186.000000
835.430542	190.000000
835.465027	185.000000
835.499390	177.000000
835.533875	206.000000
835.568359	177.000000
835.602722	177.000000
835.637207	187.000000
835.671692	176.000000
835.706055	199.000000
835.740540	186.000000
835.774902	183.000000
835.809387	185.000000
835.843811	180.000000
835.878235	190.000000
835.912659	179.000000
835.947083	182.000000
835.981506	180.000000
836.015930	176.000000
836.050354	194.000000
836.084778	191.000000
836.119202	193.000000
836.153625	195.000000
836.187988	179.000000
836.222473	180.000000
836.256897	186.000000
836.291260	184.000000
836.325684	193.000000
836.360046	178.000000
836.394470	185.000000
836.428894	191.000000
836.463318	181.000000
836.497681	185.000000
836.532104	195.000000
836.566467	191.000000
836.600891	183.000000
836.635315	188.000000
836.669678	190.000000
836.704102	189.000000
836.738525	189.000000
836.772888	174.000000
836.807251	183.000000
836.841675	186.000000
836.876038	179.000000
836.910461	177.000000
836.944763	193.000000
836.979187	182.000000
837.013611	188.000000
837.047974	177.000000
837.082336	198.000000
837.116699	185.000000
837.151062	186.000000
837.185486	176.000000
837.219849	183.000000
837.254211	186.000000
837.288574	187.000000
837.322937	175.000000
837.357300	173.000000
837.391663	198.000000
837.426086	191.000000
837.460388	187.000000
837.494751	193.000000
837.529114	181.000000
837.563477	194.000000
837.597839	190.000000
837.632141	183.000000
837.666565	185.000000
837.700928	185.000000
837.735229	185.000000
837.769592	189.000000
837.803955	191.000000
837.838257	181.000000
837.872620	181.000000
837.906982	187.000000
837.941284	184.000000
837.975647	192.000000
838.010010	191.000000
838.044312	183.000000
838.078674	184.000000
838.112976	187.000000
838.147339	186.000000
838.181702	186.000000
838.216003	197.000000
838.250366	181.000000
838.284668	187.000000
838.318970	179.000000
838.353333	182.000000
838.387634	181.000000
838.421936	186.000000
838.456299	183.000000
838.490601	190.000000
838.524902	187.000000
838.559265	190.000000
838.593567	188.000000
838.627869	181.000000
838.662170	183.000000
838.696472	182.000000
838.730774	180.000000
838.765137	187.000000
838.799377	169.000000
838.833740	187.000000
838.868042	188.000000
838.902283	175.000000
838.936646	190.000000
838.970947	185.000000
839.005188	188.000000
839.039551	179.000000
839.073792	187.000000
839.108093	185.000000
839.142395	192.000000
839.176697	179.000000
839.210937	184.000000
839.245300	190.000000
839.279541	178.000000
839.313843	184.000000
839.348145	189.000000
839.382385	189.000000
839.416687	191.000000
839.450989	188.000000
839.485229	183.000000
839.519531	179.000000
839.553833	193.000000
839.588013	185.000000
839.622314	186.000000
839.656555	184.000000
839.690857	185.000000
839.725159	179.000000
839.759460	179.000000
839.793640	183.000000
839.827942	182.000000
839.862183	178.000000
839.896423	189.000000
839.930725	197.000000
839.964966	195.000000
839.999207	189.000000
840.033508	193.000000
840.067688	179.000000
840.101990	193.000000
840.136230	181.000000
840.170471	195.000000
840.204712	176.000000
840.238953	182.000000
840.273193	189.000000
840.307434	189.000000
840.341736	180.000000
840.375916	179.000000
840.410217	177.000000
840.444397	190.000000
840.478638	189.000000
840.512878	190.000000
840.547119	183.000000
840.581360	189.000000
840.615601	189.000000
840.649780	196.000000
840.684021	180.000000
840.718262	191.000000
840.752441	194.000000
840.786682	188.000000
840.820862	184.000000
840.855103	191.000000
840.889343	186.000000
840.923584	189.000000
840.957764	189.000000
840.992004	192.000000
841.026184	197.000000
841.060425	185.000000
841.094666	185.000000
841.128845	187.000000
841.163025	190.000000
841.197266	187.000000
841.231445	186.000000
841.265686	187.000000
841.299866	180.000000
841.334045	194.000000
841.368286	187.000000
841.402405	191.000000
841.436646	189.000000
841.470825	181.000000
841.505005	186.000000
841.539185	179.000000
841.573425	185.000000
841.607544	180.000000
841.641785	188.000000
841.675964	180.000000
841.710144	191.000000
841.744324	182.000000
841.778503	186.000000
841.812683	179.000000
841.846863	194.000000
841.881042	189.000000
841.915222	181.000000
841.949402	194.000000
841.983521	179.000000
842.017700	183.000000
842.051880	185.000000
842.086060	182.000000
842.120239	185.000000
842.154419	182.000000
842.188538	185.000000
842.222717	181.000000
842.256897	197.000000
842.291016	180.000000
842.325195	188.000000
842.359375	193.000000
842.393494	195.000000
842.427673	182.000000
842.461853	190.000000
842.495911	194.000000
842.530090	189.000000
842.564209	181.000000
842.598389	188.000000
842.632568	186.000000
842.666626	187.000000
842.700806	182.000000
842.734985	183.000000
842.769043	187.000000
842.803223	185.000000
842.837402	181.000000
842.871460	184.000000
842.905640	199.000000
842.939697	181.000000
842.973877	187.000000
843.007996	195.000000
843.042175	196.000000
843.076233	183.000000
843.110413	191.000000
843.144470	190.000000
843.178589	190.000000
843.212769	182.000000
843.246826	191.000000
843.280945	186.000000
843.315125	185.000000
843.349182	179.000000
843.383301	194.000000
843.417419	197.000000
843.451538	188.000000
843.485657	184.000000
843.519714	183.000000
843.553833	183.000000
843.587952	183.000000
843.622070	181.000000
843.656128	189.000000
843.690247	183.000000
843.724304	185.000000
843.758423	188.000000
843.792542	183.000000
843.826599	182.000000
843.860718	182.000000
843.894836	177.000000
843.928894	188.000000
843.963013	189.000000
843.997070	181.000000
844.031128	180.000000
844.065247	191.000000
844.099304	190.000000
844.133362	188.000000
844.167480	190.000000
844.201599	190.000000
844.235596	187.000000
844.269714	192.000000
844.303711	183.000000
844.337830	182.000000
844.371948	191.000000
844.405945	186.000000
844.440063	182.000000
844.474121	201.000000
844.508118	183.000000
844.542236	187.000000
844.576294	188.000000
844.610352	181.000000
844.644409	185.000000
844.678406	183.000000
844.712524	193.000000
844.746582	193.000000
844.780640	188.000000
844.814636	190.000000
844.848755	199.000000
844.882751	182.000000
844.916809	189.000000
844.950867	189.000000
844.984863	197.000000
845.018921	185.000000
845.052979	187.000000
845.086975	187.000000
845.121033	183.000000
845.155090	180.000000
845.189087	191.000000
845.223145	181.000000
845.257141	188.000000
845.291199	189.000000
845.325256	192.000000
845.359253	184.000000
845.393250	202.000000
845.427307	183.000000
845.461304	189.000000
845.495361	185.000000
845.529358	195.000000
845.563354	183.000000
845.597412	180.000000
845.631409	193.000000
845.665405	195.000000
845.699463	190.000000
845.733459	181.000000
845.767456	189.000000
845.801453	185.000000
845.835449	190.000000
845.869446	192.000000
845.903503	186.000000
845.937439	179.000000
845.971497	190.000000
846.005493	180.000000
846.039429	188.000000
846.073486	200.000000
846.107483	191.000000
846.141418	183.000000
846.175476	189.000000
846.209473	192.000000
846.243408	180.000000
846.277405	189.000000
846.311401	185.000000
846.345337	185.000000
846.379395	193.000000
846.413330	181.000000
846.447327	194.000000
846.481323	183.000000
846.515259	185.000000
846.549255	187.000000
846.583252	192.000000
846.617187	181.000000
846.651184	190.000000
846.685120	180.000000
846.719055	197.000000
846.753052	188.000000
846.786987	189.000000
846.820984	177.000000
846.854980	193.000000
846.888916	179.000000
846.922852	191.000000
846.956848	194.000000
846.990723	186.000000
847.024719	188.000000
847.058716	185.000000
847.092590	190.000000
847.126587	186.000000
847.160522	181.000000
847.194458	192.000000
847.228455	180.000000
847.262390	179.000000
847.296265	183.000000
847.330261	193.000000
847.364136	184.000000
847.398132	184.000000
847.432068	186.000000
847.466003	185.000000
847.499939	184.000000
847.533875	189.000000
847.567749	184.000000
847.601746	184.000000
847.635681	189.000000
847.669556	178.000000
847.703491	189.000000
847.737427	202.000000
847.771301	181.000000
847.805237	192.000000
847.839233	190.000000
847.873108	186.000000
847.907043	187.000000
847.940918	195.000000
847.974854	190.000000
848.008789	187.000000
848.042664	187.000000
848.076538	187.000000
848.110474	191.000000
848.144348	190.000000
848.178284	183.000000
848.212219	190.000000
848.246094	184.000000
848.279968	189.000000
848.313904	188.000000
848.347778	185.000000
848.381653	185.000000
848.415588	186.000000
848.449463	182.000000
848.483337	187.000000
848.517212	196.000000
848.551086	187.000000
848.585022	183.000000
848.618835	197.000000
848.652771	189.000000
848.686646	181.000000
848.720520	194.000000
848.754395	182.000000
848.788330	190.000000
848.822144	185.000000
848.856018	186.000000
848.889954	193.000000
848.923767	185.000000
848.957642	181.000000
848.991577	190.000000
849.025391	184.000000
849.059265	180.000000
849.093079	179.000000
849.126953	182.000000
849.160828	192.000000
849.194641	186.000000
849.228577	183.000000
849.262451	187.000000
849.296265	183.000000
849.330139	185.000000
849.364014	184.000000
849.397827	190.000000
849.431702	188.000000
849.465515	192.000000
849.499329	172.000000
849.533203	185.000000
849.567078	177.000000
849.600891	190.000000
849.634766	189.000000
849.668518	194.000000
849.702393	181.000000
849.736267	182.000000
849.770020	201.000000
849.803894	189.000000
849.837769	190.000000
849.871521	186.000000
849.905396	191.000000
849.939270	184.000000
849.973022	191.000000
850.006897	188.000000
850.040710	187.000000
850.074524	194.000000
850.108337	182.000000
850.142151	191.000000
850.175964	194.000000
850.209778	183.000000
850.243530	176.000000
850.277405	190.000000
850.311218	189.000000
850.344971	182.000000
850.378845	199.000000
850.412659	182.000000
850.446411	193.000000
850.480225	184.000000
850.514038	189.000000
850.547791	187.000000
850.581665	188.000000
850.615417	181.000000
850.649231	191.000000
850.683044	185.000000
850.716858	185.000000
850.750610	186.000000
850.784424	193.000000
850.818176	179.000000
850.851929	185.000000
850.885742	182.000000
850.919495	185.000000
850.953308	193.000000
850.987122	195.000000
851.020874	180.000000
851.054626	180.000000
851.088440	188.000000
851.122192	188.000000
851.156006	192.000000
851.189697	187.000000
851.223511	180.000000
851.257263	192.000000
851.291077	187.000000
851.324829	186.000000
851.358582	185.000000
851.392334	184.000000
851.426086	184.000000
851.459900	196.000000
851.493591	190.000000
851.527344	187.000000
851.561157	190.000000
851.594849	187.000000
851.628662	191.000000
851.662415	200.000000
851.696106	192.000000
851.729858	191.000000
851.763611	184.000000
851.797363	187.000000
851.831116	181.000000
851.864868	190.000000
851.898560	194.000000
851.932312	183.000000
851.966064	191.000000
851.999817	186.000000
852.033569	185.000000
852.067261	193.000000
852.101013	183.000000
852.134766	182.000000
852.168457	180.000000
852.202209	190.000000
852.235901	184.000000
852.269592	190.000000
852.303345	196.000000
852.337036	186.000000
852.370789	190.000000
852.404541	189.000000
852.438171	181.000000
852.471924	186.000000
852.505676	187.000000
852.539307	189.000000
852.573059	184.000000
852.606812	185.000000
852.640442	185.000000
852.674194	193.000000
852.707886	196.000000
852.741577	192.000000
852.775269	180.000000
852.809021	187.000000
852.842651	186.000000
852.876404	193.000000
852.910034	191.000000
852.943787	191.000000
852.977478	191.000000
853.011108	183.000000
853.044861	184.000000
853.078552	192.000000
853.112183	190.000000
853.145874	189.000000
853.179626	178.000000
853.213257	192.000000
853.246948	181.000000
853.280640	196.000000
853.314270	186.000000
853.347961	194.000000
853.381653	189.000000
853.415283	193.000000
853.448975	185.000000
853.482605	193.000000
853.516296	187.000000
853.549988	183.000000
853.583618	184.000000
853.617310	189.000000
853.651001	190.000000
853.684631	186.000000
853.718323	185.000000
853.751953	193.000000
853.785583	177.000000
853.819275	194.000000
853.852966	188.000000
853.886536	181.000000
853.920227	181.000000
853.953918	196.000000
853.987488	187.000000
854.021179	189.000000
854.054749	191.000000
854.088440	190.000000
854.122131	177.000000
854.155701	188.000000
854.189331	182.000000
854.223022	187.000000
854.256592	186.000000
854.290283	190.000000
854.323914	190.000000
854.357483	185.000000
854.391174	186.000000
854.424744	200.000000
854.458374	185.000000
854.492065	200.000000
854.525696	185.000000
854.559265	189.000000
854.592896	201.000000
854.626465	189.000000
854.660095	186.000000
854.693787	190.000000
854.727356	184.000000
854.760986	189.000000
854.794617	190.000000
854.828186	185.000000
854.861816	191.000000
854.895447	187.000000
854.929016	192.000000
854.962585	190.000000
854.996155	201.000000
855.029785	191.000000
855.063416	190.000000
855.097046	193.000000
855.130615	186.000000
855.164185	192.000000
855.197754	189.000000
855.231384	188.000000
855.264954	182.000000
855.298523	196.000000
855.332153	191.000000
855.365723	197.000000
855.399292	188.000000
855.432922	186.000000
855.466492	192.000000
855.500061	179.000000
855.533630	185.000000
855.567200	189.000000
855.600769	195.000000
855.634338	189.000000
855.667969	190.000000
855.701477	181.000000
855.735046	186.000000
855.768616	177.000000
855.802185	192.000000
855.835754	198.000000
855.869324	178.000000
855.902893	182.000000
855.936401	189.000000
855.969971	187.000000
856.003540	181.000000
856.037109	189.000000
856.070618	188.000000
856.104187	180.000000
856.137695	188.000000
856.171265	176.000000
856.204834	190.000000
856.238403	192.000000
856.271912	184.000000
856.305481	190.000000
856.338989	181.000000
856.372559	191.000000
856.406128	191.000000
856.439636	193.000000
856.473145	185.000000
856.506653	198.000000
856.540222	190.000000
856.573792	192.000000
856.607300	191.000000
856.640808	183.000000
856.674377	190.000000
856.707825	216.000000
856.741394	194.000000
856.774902	178.000000
856.808472	177.000000
856.841980	192.000000
856.875488	194.000000
856.908936	181.000000
856.942505	190.000000
856.976013	185.000000
857.009521	182.000000
857.043030	190.000000
857.076477	188.000000
857.110046	193.000000
857.143555	187.000000
857.177063	193.000000
857.210571	185.000000
857.244080	184.000000
857.277527	190.000000
857.311035	191.000000
857.344543	190.000000
857.378052	185.000000
857.411499	185.000000
857.445068	197.000000
857.478516	182.000000
857.512024	181.000000
857.545532	187.000000
857.578979	188.000000
857.612427	182.000000
857.645874	187.000000
857.679382	185.000000
857.712891	191.000000
857.746399	184.000000
857.779846	192.000000
857.813354	193.000000
857.846741	188.000000
857.880249	179.000000
857.913757	188.000000
857.947266	189.000000
857.980652	189.000000
858.014160	183.000000
858.047546	189.000000
858.081055	183.000000
858.114563	201.000000
858.147949	184.000000
858.181458	191.000000
858.214844	187.000000
858.248352	179.000000
858.281799	192.000000
858.315308	198.000000
858.348694	192.000000
858.382141	196.000000
858.415588	190.000000
858.449036	193.000000
858.482483	190.000000
858.515930	186.000000
858.549377	189.000000
858.582825	193.000000
858.616211	193.000000
858.649658	187.000000
858.683105	183.000000
858.716553	185.000000
858.750000	187.000000
858.783386	182.000000
858.816833	183.000000
858.850281	187.000000
858.883728	193.000000
858.917114	187.000000
858.950562	199.000000
858.983948	188.000000
859.017395	196.000000
859.050781	185.000000
859.084167	182.000000
859.117615	179.000000
859.151062	191.000000
859.184448	180.000000
859.217834	189.000000
859.251282	178.000000
859.284668	182.000000
859.318054	178.000000
859.351440	188.000000
859.384888	188.000000
859.418274	179.000000
859.451721	177.000000
859.485046	187.000000
859.518494	185.000000
859.551819	185.000000
859.585266	187.000000
859.618652	191.000000
859.652039	183.000000
859.685425	181.000000
859.718811	182.000000
859.752197	178.000000
859.785583	190.000000
859.819031	197.000000
859.852356	193.000000
859.885742	184.000000
859.919067	188.000000
859.952454	185.000000
859.985901	191.000000
860.019287	185.000000
860.052612	0.000000
860.085999	0.000000
860.119324	0.000000
860.152710	0.000000
860.186096	0.000000
860.219421	0.000000
860.252808	0.000000
860.286133	0.000000
860.319519	0.000000
860.352905	0.000000
860.386292	0.000000
860.419617	0.000000
860.452942	0.000000
860.486267	0.000000
860.519653	0.000000
860.553040	0.000000
860.586365	0.000000
860.619690	0.000000
860.653076	0.000000
860.686340	0.000000
860.719727	0.000000
860.753113	0.000000
860.786377	0.000000
860.819763	0.000000
860.853027	0.000000
860.886414	0.000000
860.919739	0.000000
860.953125	0.000000
860.986389	0.000000
861.019714	0.000000
861.053040	0.000000
861.086365	0.000000
861.119690	0.000000
861.153076	0.000000
861.186340	0.000000
861.219666	0.000000
861.252930	0.000000
861.286316	0.000000
861.319641	0.000000
861.352905	0.000000
861.386230	0.000000
861.419495	0.000000
861.452820	0.000000
861.486145	0.000000
861.519470	0.000000
861.552734	0.000000
861.586060	0.000000
861.619324	0.000000
861.652649	0.000000
861.685974	0.000000
861.719238	0.000000
861.752563	0.000000
861.785828	0.000000
861.819092	0.000000
861.852417	0.000000
861.885742	0.000000
861.918945	0.000000
861.952271	0.000000
861.985535	0.000000
862.018799	0.000000
862.052124	0.000000
862.085449	0.000000
862.118652	0.000000
862.151978	0.000000
862.185181	0.000000
862.218506	0.000000
862.251770	0.000000
862.285034	0.000000
862.318298	0.000000
862.351562	0.000000
862.384827	0.000000
862.418091	0.000000
862.451355	0.000000
862.484619	0.000000
862.517883	0.000000
862.551086	0.000000
862.584351	0.000000
862.617676	0.000000
862.650940	0.000000
862.684143	0.000000
862.717407	0.000000
862.750610	0.000000
862.783875	0.000000
862.817139	0.000000
862.850342	0.000000
862.883606	0.000000
862.916870	0.000000
862.950073	0.000000
862.983337	0.000000
863.016602	0.000000
863.049805	0.000000
863.083069	0.000000
863.116211	0.000000
863.149475	0.000000
863.182739	0.000000
863.216003	0.000000
863.249146	0.000000
863.282410	0.000000
863.315613	0.000000
863.348816	0.000000
863.382080	0.000000
863.415222	0.000000
863.448486	0.000000
863.481689	0.000000
863.514893	0.000000
863.548157	0.000000
863.581360	0.000000
863.614502	0.000000
863.647766	0.000000
863.680908	0.000000
863.714172	0.000000
863.747375	0.000000
863.780579	0.000000
863.813721	0.000000
863.846985	0.000000
863.880127	0.000000
863.913330	0.000000
863.946533	0.000000
863.979675	0.000000
864.012939	0.000000
