Model Number: SPM-001-M   
Serial Number: 10090201
Firmware Version: 004.17.6
Exposure Time: 500000.000000us
Data Taken on: 27-08-2020 10:23:56.964
Wavelength	Amplitude
733.770752	0.000000
733.808716	0.000000
733.846619	0.000000
733.884583	0.000000
733.922546	0.000000
733.960449	0.000000
733.998413	0.000000
734.036377	0.000000
734.074219	0.000000
734.112183	0.000000
734.150085	0.000000
734.188049	0.000000
734.226013	0.000000
734.263916	0.000000
734.301819	0.000000
734.339783	0.000000
734.377686	0.000000
734.415588	0.000000
734.453552	0.000000
734.491455	0.000000
734.529419	0.000000
734.567322	0.000000
734.605225	0.000000
734.643127	0.000000
734.681091	0.000000
734.718994	0.000000
734.756897	0.000000
734.794800	0.000000
734.832703	0.000000
734.870667	0.000000
734.908508	0.000000
734.946472	0.000000
734.984375	0.000000
735.022278	0.000000
735.060181	0.000000
735.098083	0.000000
735.135986	0.000000
735.173889	0.000000
735.211792	0.000000
735.249695	0.000000
735.287598	0.000000
735.325439	0.000000
735.363403	0.000000
735.401306	0.000000
735.439148	0.000000
735.477051	0.000000
735.515015	0.000000
735.552856	0.000000
735.590759	0.000000
735.628662	0.000000
735.666504	0.000000
735.704407	0.000000
735.742310	0.000000
735.780212	0.000000
735.818115	0.000000
735.856018	0.000000
735.893860	0.000000
735.931763	0.000000
735.969604	0.000000
736.007507	0.000000
736.045410	0.000000
736.083252	0.000000
736.121094	0.000000
736.158997	0.000000
736.196838	0.000000
736.234741	0.000000
736.272644	0.000000
736.310486	0.000000
736.348389	0.000000
736.386230	0.000000
736.424072	0.000000
736.461975	0.000000
736.499878	0.000000
736.537720	0.000000
736.575562	0.000000
736.613403	0.000000
736.651306	0.000000
736.689148	0.000000
736.726990	0.000000
736.764893	0.000000
736.802734	0.000000
736.840576	0.000000
736.878418	0.000000
736.916321	0.000000
736.954102	0.000000
736.992004	0.000000
737.029846	0.000000
737.067688	0.000000
737.105530	0.000000
737.143372	0.000000
737.181213	0.000000
737.219116	0.000000
737.256897	0.000000
737.294739	0.000000
737.332642	0.000000
737.370422	0.000000
737.408325	0.000000
737.446167	0.000000
737.483948	0.000000
737.521790	0.000000
737.559692	0.000000
737.597473	0.000000
737.635315	0.000000
737.673157	0.000000
737.710999	0.000000
737.748840	0.000000
737.786621	0.000000
737.824463	0.000000
737.862305	0.000000
737.900085	0.000000
737.937927	0.000000
737.975769	0.000000
738.013550	0.000000
738.051392	0.000000
738.089233	0.000000
738.127014	0.000000
738.164856	0.000000
738.202698	0.000000
738.240479	0.000000
738.278320	0.000000
738.316162	0.000000
738.353943	0.000000
738.391785	0.000000
738.429565	0.000000
738.467407	0.000000
738.505188	0.000000
738.542969	0.000000
738.580811	0.000000
738.618652	0.000000
738.656372	0.000000
738.694214	0.000000
738.732056	0.000000
738.769836	0.000000
738.807617	0.000000
738.845459	0.000000
738.883240	0.000000
738.921021	0.000000
738.958862	0.000000
738.996582	0.000000
739.034424	0.000000
739.072205	0.000000
739.109985	0.000000
739.147827	0.000000
739.185547	0.000000
739.223389	0.000000
739.261169	0.000000
739.298889	0.000000
739.336731	0.000000
739.374512	0.000000
739.412292	0.000000
739.450073	0.000000
739.487854	0.000000
739.525635	0.000000
739.563416	0.000000
739.601135	0.000000
739.638977	0.000000
739.676758	0.000000
739.714478	0.000000
739.752258	0.000000
739.790100	0.000000
739.827820	0.000000
739.865601	0.000000
739.903381	0.000000
739.941101	0.000000
739.978882	193.000000
740.016724	182.000000
740.054443	187.000000
740.092224	181.000000
740.130005	180.000000
740.167725	179.000000
740.205505	182.000000
740.243225	186.000000
740.281006	188.000000
740.318787	176.000000
740.356506	193.000000
740.394287	187.000000
740.432068	185.000000
740.469727	177.000000
740.507507	189.000000
740.545288	183.000000
740.583008	193.000000
740.620789	179.000000
740.658569	175.000000
740.696228	184.000000
740.734009	188.000000
740.771790	171.000000
740.809509	191.000000
740.847229	180.000000
740.884949	185.000000
740.922729	180.000000
740.960449	182.000000
740.998169	181.000000
741.035950	185.000000
741.073669	186.000000
741.111389	189.000000
741.149170	197.000000
741.186890	194.000000
741.224609	192.000000
741.262329	188.000000
741.300110	195.000000
741.337769	184.000000
741.375549	179.000000
741.413208	188.000000
741.450989	181.000000
741.488708	187.000000
741.526367	185.000000
741.564148	190.000000
741.601868	189.000000
741.639526	182.000000
741.677307	188.000000
741.715027	187.000000
741.752686	186.000000
741.790466	194.000000
741.828186	190.000000
741.865845	179.000000
741.903564	180.000000
741.941345	183.000000
741.979004	182.000000
742.016724	186.000000
742.054382	189.000000
742.092102	188.000000
742.129822	181.000000
742.167480	181.000000
742.205200	183.000000
742.242920	184.000000
742.280640	190.000000
742.318359	178.000000
742.356079	183.000000
742.393738	189.000000
742.431396	180.000000
742.469116	189.000000
742.506775	180.000000
742.544495	185.000000
742.582214	189.000000
742.619873	185.000000
742.657593	192.000000
742.695251	186.000000
742.732971	185.000000
742.770630	183.000000
742.808289	188.000000
742.846008	188.000000
742.883728	185.000000
742.921326	189.000000
742.959045	183.000000
742.996765	183.000000
743.034424	181.000000
743.072083	189.000000
743.109802	183.000000
743.147400	180.000000
743.185120	188.000000
743.222839	185.000000
743.260437	192.000000
743.298157	189.000000
743.335754	180.000000
743.373474	188.000000
743.411133	173.000000
743.448792	183.000000
743.486450	183.000000
743.524170	180.000000
743.561768	185.000000
743.599487	195.000000
743.637146	197.000000
743.674744	185.000000
743.712463	180.000000
743.750122	188.000000
743.787720	190.000000
743.825439	186.000000
743.863037	180.000000
743.900696	186.000000
743.938416	210.000000
743.976013	189.000000
744.013672	191.000000
744.051331	191.000000
744.088928	192.000000
744.126587	189.000000
744.164307	182.000000
744.201904	181.000000
744.239563	188.000000
744.277222	186.000000
744.314819	182.000000
744.352478	189.000000
744.390137	185.000000
744.427734	185.000000
744.465393	180.000000
744.502991	182.000000
744.540649	189.000000
744.578308	182.000000
744.615906	179.000000
744.653564	179.000000
744.691223	186.000000
744.728821	178.000000
744.766418	187.000000
744.804077	191.000000
744.841675	185.000000
744.879333	180.000000
744.916992	187.000000
744.954529	184.000000
744.992187	191.000000
745.029785	183.000000
745.067444	184.000000
745.105042	186.000000
745.142639	191.000000
745.180298	196.000000
745.217896	187.000000
745.255493	187.000000
745.293152	193.000000
745.330750	189.000000
745.368347	191.000000
745.405945	188.000000
745.443604	189.000000
745.481140	187.000000
745.518799	184.000000
745.556396	190.000000
745.593994	191.000000
745.631592	180.000000
745.669189	182.000000
745.706787	182.000000
745.744385	183.000000
745.781982	189.000000
745.819580	180.000000
745.857178	184.000000
745.894775	189.000000
745.932373	182.000000
745.969971	186.000000
746.007568	177.000000
746.045166	195.000000
746.082764	188.000000
746.120300	191.000000
746.157898	186.000000
746.195557	186.000000
746.233093	179.000000
746.270691	189.000000
746.308228	187.000000
746.345825	194.000000
746.383423	186.000000
746.420959	185.000000
746.458557	185.000000
746.496155	180.000000
746.533691	183.000000
746.571289	181.000000
746.608887	184.000000
746.646423	191.000000
746.684021	187.000000
746.721619	183.000000
746.759155	186.000000
746.796753	181.000000
746.834351	176.000000
746.871826	183.000000
746.909424	194.000000
746.946960	187.000000
746.984558	188.000000
747.022156	187.000000
747.059631	192.000000
747.097229	189.000000
747.134827	189.000000
747.172363	193.000000
747.209900	193.000000
747.247498	183.000000
747.285034	194.000000
747.322571	194.000000
747.360168	185.000000
747.397644	177.000000
747.435242	190.000000
747.472778	194.000000
747.510315	185.000000
747.547913	182.000000
747.585388	193.000000
747.622925	181.000000
747.660522	180.000000
747.697998	182.000000
747.735596	188.000000
747.773132	182.000000
747.810669	186.000000
747.848206	185.000000
747.885742	182.000000
747.923279	176.000000
747.960815	188.000000
747.998352	186.000000
748.035889	193.000000
748.073425	187.000000
748.110901	182.000000
748.148437	179.000000
748.185974	187.000000
748.223511	193.000000
748.261047	188.000000
748.298584	183.000000
748.336060	185.000000
748.373596	189.000000
748.411133	205.000000
748.448608	184.000000
748.486145	190.000000
748.523682	189.000000
748.561218	192.000000
748.598755	190.000000
748.636292	191.000000
748.673706	191.000000
748.711243	195.000000
748.748718	182.000000
748.786255	189.000000
748.823792	189.000000
748.861267	183.000000
748.898804	188.000000
748.936340	186.000000
748.973816	184.000000
749.011292	190.000000
749.048828	187.000000
749.086304	188.000000
749.123840	201.000000
749.161316	183.000000
749.198792	197.000000
749.236328	196.000000
749.273743	188.000000
749.311279	188.000000
749.348816	189.000000
749.386230	189.000000
749.423767	175.000000
749.461304	187.000000
749.498718	191.000000
749.536255	190.000000
749.573730	200.000000
749.611206	193.000000
749.648682	183.000000
749.686218	184.000000
749.723633	196.000000
749.761169	181.000000
749.798645	181.000000
749.836060	185.000000
749.873596	186.000000
749.911011	185.000000
749.948547	192.000000
749.986023	181.000000
750.023437	184.000000
750.060913	179.000000
750.098450	182.000000
750.135864	181.000000
750.173340	189.000000
750.210815	186.000000
750.248291	182.000000
750.285767	184.000000
750.323242	190.000000
750.360657	187.000000
750.398132	181.000000
750.435608	189.000000
750.473022	183.000000
750.510498	186.000000
750.547974	181.000000
750.585449	184.000000
750.622925	178.000000
750.660339	194.000000
750.697815	189.000000
750.735291	184.000000
750.772644	191.000000
750.810120	184.000000
750.847595	191.000000
750.885010	185.000000
750.922485	201.000000
750.959961	185.000000
750.997375	192.000000
751.034851	193.000000
751.072266	193.000000
751.109680	182.000000
751.147156	190.000000
751.184570	190.000000
751.221985	186.000000
751.259460	181.000000
751.296875	184.000000
751.334290	183.000000
751.371765	188.000000
751.409180	193.000000
751.446594	191.000000
751.484070	189.000000
751.521423	186.000000
751.558899	186.000000
751.596375	194.000000
751.633728	191.000000
751.671204	194.000000
751.708618	185.000000
751.746033	184.000000
751.783447	178.000000
751.820801	178.000000
751.858276	188.000000
751.895691	184.000000
751.933105	186.000000
751.970520	182.000000
752.007935	186.000000
752.045349	190.000000
752.082764	187.000000
752.120178	181.000000
752.157532	187.000000
752.195007	181.000000
752.232422	189.000000
752.269775	191.000000
752.307190	190.000000
752.344543	180.000000
752.382019	188.000000
752.419434	190.000000
752.456787	191.000000
752.494202	192.000000
752.531616	189.000000
752.568970	190.000000
752.606384	188.000000
752.643799	192.000000
752.681152	191.000000
752.718567	191.000000
752.755981	181.000000
752.793335	189.000000
752.830750	179.000000
752.868164	197.000000
752.905518	184.000000
752.942932	195.000000
752.980225	185.000000
753.017639	192.000000
753.055054	187.000000
753.092407	192.000000
753.129822	194.000000
753.167175	202.000000
753.204529	185.000000
753.241943	183.000000
753.279358	179.000000
753.316650	188.000000
753.354065	190.000000
753.391479	193.000000
753.428772	196.000000
753.466187	191.000000
753.503479	184.000000
753.540894	188.000000
753.578308	180.000000
753.615601	183.000000
753.653015	188.000000
753.690369	186.000000
753.727722	184.000000
753.765076	183.000000
753.802490	179.000000
753.839783	181.000000
753.877136	181.000000
753.914551	201.000000
753.951843	182.000000
753.989258	197.000000
754.026611	185.000000
754.063904	188.000000
754.101257	180.000000
754.138611	181.000000
754.175964	186.000000
754.213318	195.000000
754.250610	178.000000
754.288025	188.000000
754.325378	185.000000
754.362671	188.000000
754.400024	187.000000
754.437378	197.000000
754.474670	194.000000
754.512085	183.000000
754.549438	190.000000
754.586731	187.000000
754.624084	186.000000
754.661438	181.000000
754.698730	193.000000
754.736084	186.000000
754.773376	184.000000
754.810730	186.000000
754.848083	185.000000
754.885315	191.000000
754.922668	177.000000
754.960022	181.000000
754.997314	191.000000
755.034668	188.000000
755.072021	187.000000
755.109253	185.000000
755.146606	195.000000
755.183960	187.000000
755.221252	200.000000
755.258545	190.000000
755.295898	196.000000
755.333191	193.000000
755.370544	189.000000
755.407776	183.000000
755.445129	187.000000
755.482422	190.000000
755.519714	185.000000
755.557068	181.000000
755.594360	180.000000
755.631653	189.000000
755.668945	199.000000
755.706299	190.000000
755.743530	205.000000
755.780884	200.000000
755.818176	193.000000
755.855408	195.000000
755.892761	193.000000
755.930054	189.000000
755.967346	190.000000
756.004639	193.000000
756.041870	187.000000
756.079224	191.000000
756.116516	187.000000
756.153748	192.000000
756.191040	200.000000
756.228394	197.000000
756.265625	190.000000
756.302917	195.000000
756.340210	188.000000
756.377441	197.000000
756.414795	201.000000
756.452087	193.000000
756.489319	186.000000
756.526611	198.000000
756.563843	196.000000
756.601135	201.000000
756.638428	201.000000
756.675659	194.000000
756.712952	195.000000
756.750244	192.000000
756.787476	188.000000
756.824768	196.000000
756.862061	194.000000
756.899292	240.000000
756.936584	197.000000
756.973816	210.000000
757.011047	202.000000
757.048340	194.000000
757.085632	190.000000
757.122864	212.000000
757.160156	193.000000
757.197327	202.000000
757.234619	202.000000
757.271912	190.000000
757.309082	197.000000
757.346375	191.000000
757.383667	200.000000
757.420837	199.000000
757.458130	192.000000
757.495422	195.000000
757.532593	197.000000
757.569885	191.000000
757.607117	196.000000
757.644348	197.000000
757.681580	211.000000
757.718811	184.000000
757.756042	195.000000
757.793335	197.000000
757.830505	198.000000
757.867798	198.000000
757.905029	193.000000
757.942200	197.000000
757.979492	198.000000
758.016724	198.000000
758.053894	194.000000
758.091187	215.000000
758.128418	197.000000
758.165588	196.000000
758.202820	210.000000
758.240112	205.000000
758.277283	208.000000
758.314514	201.000000
758.351685	199.000000
758.388916	207.000000
758.426147	213.000000
758.463379	213.000000
758.500610	201.000000
758.537842	204.000000
758.575012	211.000000
758.612244	194.000000
758.649475	216.000000
758.686646	192.000000
758.723877	211.000000
758.761108	208.000000
758.798279	203.000000
758.835510	207.000000
758.872742	213.000000
758.909851	201.000000
758.947083	206.000000
758.984253	206.000000
759.021484	213.000000
759.058716	200.000000
759.095886	210.000000
759.133057	201.000000
759.170288	209.000000
759.207458	203.000000
759.244690	219.000000
759.281860	209.000000
759.319031	203.000000
759.356262	199.000000
759.393433	204.000000
759.430603	199.000000
759.467773	202.000000
759.505005	210.000000
759.542175	212.000000
759.579346	204.000000
759.616516	206.000000
759.653687	208.000000
759.690918	205.000000
759.728027	204.000000
759.765259	207.000000
759.802429	208.000000
759.839539	208.000000
759.876770	210.000000
759.913940	219.000000
759.951111	207.000000
759.988281	209.000000
760.025452	205.000000
760.062561	205.000000
760.099792	219.000000
760.136963	216.000000
760.174072	209.000000
760.211243	201.000000
760.248413	209.000000
760.285583	207.000000
760.322754	217.000000
760.359863	222.000000
760.397034	218.000000
760.434204	214.000000
760.471375	214.000000
760.508545	213.000000
760.545715	213.000000
760.582825	208.000000
760.619995	219.000000
760.657166	204.000000
760.694275	218.000000
760.731445	211.000000
760.768555	219.000000
760.805664	220.000000
760.842834	216.000000
760.879944	214.000000
760.917114	217.000000
760.954285	214.000000
760.991394	215.000000
761.028564	218.000000
761.065674	221.000000
761.102783	208.000000
761.139954	222.000000
761.177124	216.000000
761.214172	226.000000
761.251343	215.000000
761.288452	220.000000
761.325562	222.000000
761.362732	217.000000
761.399841	213.000000
761.436951	227.000000
761.474121	217.000000
761.511169	217.000000
761.548340	227.000000
761.585449	233.000000
761.622559	222.000000
761.659668	224.000000
761.696838	230.000000
761.733887	223.000000
761.771057	227.000000
761.808167	225.000000
761.845276	231.000000
761.882385	240.000000
761.919434	231.000000
761.956604	247.000000
761.993713	225.000000
762.030762	237.000000
762.067871	229.000000
762.105042	237.000000
762.142090	243.000000
762.179199	233.000000
762.216309	238.000000
762.253418	249.000000
762.290527	243.000000
762.327637	242.000000
762.364685	233.000000
762.401794	240.000000
762.438904	237.000000
762.475952	233.000000
762.513062	231.000000
762.550110	228.000000
762.587219	247.000000
762.624329	244.000000
762.661377	240.000000
762.698486	236.000000
762.735596	243.000000
762.772644	238.000000
762.809753	234.000000
762.846863	238.000000
762.883911	249.000000
762.921021	241.000000
762.958069	239.000000
762.995117	244.000000
763.032227	247.000000
763.069336	234.000000
763.106323	243.000000
763.143433	241.000000
763.180481	251.000000
763.217590	247.000000
763.254639	239.000000
763.291687	241.000000
763.328735	250.000000
763.365845	243.000000
763.402893	241.000000
763.439941	246.000000
763.477051	252.000000
763.514038	248.000000
763.551147	246.000000
763.588196	252.000000
763.625244	249.000000
763.662292	256.000000
763.699402	257.000000
763.736389	248.000000
763.773499	254.000000
763.810486	258.000000
763.847534	253.000000
763.884644	256.000000
763.921631	254.000000
763.958679	263.000000
763.995728	265.000000
764.032776	266.000000
764.069824	250.000000
764.106873	262.000000
764.143860	264.000000
764.180969	253.000000
764.218018	268.000000
764.255005	261.000000
764.292053	261.000000
764.329102	275.000000
764.366089	271.000000
764.403137	270.000000
764.440125	261.000000
764.477173	274.000000
764.514221	271.000000
764.551208	271.000000
764.588257	260.000000
764.625305	270.000000
764.662292	274.000000
764.699341	276.000000
764.736389	266.000000
764.773376	286.000000
764.810425	270.000000
764.847473	288.000000
764.884399	277.000000
764.921448	287.000000
764.958435	282.000000
764.995483	275.000000
765.032532	299.000000
765.069458	274.000000
765.106506	279.000000
765.143555	273.000000
765.180481	271.000000
765.217529	287.000000
765.254578	272.000000
765.291504	281.000000
765.328552	276.000000
765.365540	281.000000
765.402527	295.000000
765.439575	288.000000
765.476501	275.000000
765.513550	281.000000
765.550537	287.000000
765.587463	289.000000
765.624512	276.000000
765.661499	277.000000
765.698486	283.000000
765.735474	283.000000
765.772461	286.000000
765.809448	297.000000
765.846436	291.000000
765.883423	305.000000
765.920410	292.000000
765.957397	288.000000
765.994385	297.000000
766.031311	306.000000
766.068359	292.000000
766.105286	293.000000
766.142273	301.000000
766.179260	294.000000
766.216187	285.000000
766.253174	283.000000
766.290161	294.000000
766.327148	294.000000
766.364136	305.000000
766.401123	309.000000
766.438049	303.000000
766.475037	312.000000
766.512024	310.000000
766.548950	324.000000
766.585937	323.000000
766.622864	311.000000
766.659790	315.000000
766.696777	304.000000
766.733704	319.000000
766.770691	311.000000
766.807678	321.000000
766.844604	325.000000
766.881531	329.000000
766.918518	335.000000
766.955444	333.000000
766.992432	321.000000
767.029358	326.000000
767.066284	328.000000
767.103271	330.000000
767.140198	363.000000
767.177124	349.000000
767.214050	338.000000
767.251038	338.000000
767.287964	334.000000
767.324890	340.000000
767.361816	332.000000
767.398743	350.000000
767.435730	338.000000
767.472595	346.000000
767.509583	357.000000
767.546509	344.000000
767.583374	351.000000
767.620361	341.000000
767.657288	351.000000
767.694214	349.000000
767.731140	350.000000
767.768066	348.000000
767.804993	365.000000
767.841919	346.000000
767.878845	352.000000
767.915710	356.000000
767.952698	354.000000
767.989563	361.000000
768.026489	364.000000
768.063416	355.000000
768.100281	359.000000
768.137207	364.000000
768.174133	365.000000
768.211060	372.000000
768.247986	365.000000
768.284912	361.000000
768.321777	368.000000
768.358704	360.000000
768.395630	369.000000
768.432495	359.000000
768.469421	379.000000
768.506348	369.000000
768.543152	384.000000
768.580078	379.000000
768.616943	379.000000
768.653870	385.000000
768.690796	389.000000
768.727661	376.000000
768.764587	388.000000
768.801453	367.000000
768.838318	393.000000
768.875244	385.000000
768.912109	404.000000
768.948975	390.000000
768.985901	393.000000
769.022766	396.000000
769.059631	391.000000
769.096558	397.000000
769.133362	400.000000
769.170288	393.000000
769.207214	392.000000
769.244019	401.000000
769.280945	403.000000
769.317810	411.000000
769.354675	408.000000
769.391541	421.000000
769.428406	410.000000
769.465271	418.000000
769.502136	414.000000
769.539062	410.000000
769.575867	420.000000
769.612732	407.000000
769.649597	431.000000
769.686462	425.000000
769.723328	422.000000
769.760193	423.000000
769.797058	426.000000
769.833923	426.000000
769.870728	429.000000
769.907593	430.000000
769.944519	428.000000
769.981323	433.000000
770.018188	440.000000
770.055054	434.000000
770.091858	433.000000
770.128723	447.000000
770.165588	448.000000
770.202393	440.000000
770.239258	446.000000
770.276062	445.000000
770.312927	439.000000
770.349792	450.000000
770.386597	440.000000
770.423462	459.000000
770.460327	465.000000
770.497131	453.000000
770.533997	446.000000
770.570862	460.000000
770.607605	459.000000
770.644470	455.000000
770.681335	466.000000
770.718140	459.000000
770.754944	452.000000
770.791809	462.000000
770.828613	449.000000
770.865479	467.000000
770.902222	458.000000
770.939087	464.000000
770.975952	461.000000
771.012695	466.000000
771.049561	479.000000
771.086365	460.000000
771.123169	463.000000
771.159973	464.000000
771.196838	477.000000
771.233582	476.000000
771.270447	477.000000
771.307251	483.000000
771.344055	477.000000
771.380859	473.000000
771.417664	482.000000
771.454468	486.000000
771.491272	477.000000
771.528076	481.000000
771.564880	481.000000
771.601685	491.000000
771.638428	480.000000
771.675293	493.000000
771.712097	476.000000
771.748840	494.000000
771.785645	490.000000
771.822449	492.000000
771.859253	497.000000
771.896057	493.000000
771.932861	509.000000
771.969604	511.000000
772.006409	494.000000
772.043213	509.000000
772.079956	503.000000
772.116760	505.000000
772.153503	516.000000
772.190308	530.000000
772.227112	517.000000
772.263855	513.000000
772.300659	526.000000
772.337463	531.000000
772.374207	522.000000
772.411011	529.000000
772.447754	522.000000
772.484497	547.000000
772.521301	532.000000
772.558105	519.000000
772.594849	531.000000
772.631592	548.000000
772.668396	547.000000
772.705139	548.000000
772.741882	544.000000
772.778625	547.000000
772.815430	563.000000
772.852173	567.000000
772.888916	579.000000
772.925720	571.000000
772.962463	575.000000
772.999207	562.000000
773.035950	573.000000
773.072754	576.000000
773.109436	585.000000
773.146240	573.000000
773.182922	583.000000
773.219727	578.000000
773.256470	579.000000
773.293152	572.000000
773.329956	589.000000
773.366699	593.000000
773.403381	584.000000
773.440186	580.000000
773.476929	587.000000
773.513611	591.000000
773.550354	591.000000
773.587158	604.000000
773.623840	584.000000
773.660583	588.000000
773.697327	606.000000
773.734009	599.000000
773.770813	613.000000
773.807495	612.000000
773.844238	600.000000
773.880981	623.000000
773.917664	603.000000
773.954407	620.000000
773.991150	626.000000
774.027832	637.000000
774.064575	617.000000
774.101318	612.000000
774.138000	614.000000
774.174744	627.000000
774.211487	638.000000
774.248108	640.000000
774.284851	629.000000
774.321594	644.000000
774.358276	632.000000
774.395020	649.000000
774.431702	650.000000
774.468384	655.000000
774.505127	654.000000
774.541809	657.000000
774.578491	649.000000
774.615234	660.000000
774.651917	651.000000
774.688599	669.000000
774.725342	688.000000
774.762024	672.000000
774.798706	656.000000
774.835449	669.000000
774.872070	672.000000
774.908813	688.000000
774.945496	691.000000
774.982178	688.000000
775.018860	683.000000
775.055542	679.000000
775.092224	671.000000
775.128967	699.000000
775.165588	710.000000
775.202271	701.000000
775.239014	702.000000
775.275635	699.000000
775.312317	693.000000
775.349060	709.000000
775.385681	729.000000
775.422363	709.000000
775.459045	707.000000
775.495667	694.000000
775.532410	706.000000
775.569092	715.000000
775.605713	720.000000
775.642395	723.000000
775.679016	719.000000
775.715698	715.000000
775.752380	710.000000
775.789001	695.000000
775.825684	714.000000
775.862366	732.000000
775.898987	740.000000
775.935669	715.000000
775.972351	725.000000
776.008972	724.000000
776.045654	741.000000
776.082336	757.000000
776.118958	743.000000
776.155640	743.000000
776.192322	738.000000
776.228882	725.000000
776.265564	741.000000
776.302185	740.000000
776.338867	763.000000
776.375488	744.000000
776.412109	752.000000
776.448792	745.000000
776.485413	758.000000
776.522034	755.000000
776.558716	757.000000
776.595337	753.000000
776.631958	753.000000
776.668579	745.000000
776.705261	756.000000
776.741882	766.000000
776.778503	768.000000
776.815186	770.000000
776.851746	760.000000
776.888367	753.000000
776.924988	769.000000
776.961609	768.000000
776.998291	765.000000
777.034851	758.000000
777.071472	770.000000
777.108154	761.000000
777.144714	788.000000
777.181335	784.000000
777.218018	785.000000
777.254578	779.000000
777.291199	784.000000
777.327759	791.000000
777.364380	794.000000
777.401062	805.000000
777.437622	823.000000
777.474243	821.000000
777.510864	823.000000
777.547424	835.000000
777.584045	833.000000
777.620667	832.000000
777.657227	845.000000
777.693848	848.000000
777.730469	850.000000
777.767029	842.000000
777.803650	842.000000
777.840271	834.000000
777.876831	839.000000
777.913452	849.000000
777.950012	836.000000
777.986633	850.000000
778.023193	841.000000
778.059753	849.000000
778.096375	823.000000
778.132996	848.000000
778.169556	838.000000
778.206116	847.000000
778.242737	842.000000
778.279297	867.000000
778.315857	857.000000
778.352478	870.000000
778.389038	875.000000
778.425598	882.000000
778.462219	885.000000
778.498718	875.000000
778.535339	878.000000
778.571838	897.000000
778.608459	895.000000
778.645020	885.000000
778.681580	893.000000
778.718140	908.000000
778.754761	900.000000
778.791260	886.000000
778.827881	896.000000
778.864441	882.000000
778.900940	893.000000
778.937561	902.000000
778.974121	911.000000
779.010620	908.000000
779.047241	924.000000
779.083801	934.000000
779.120300	929.000000
779.156860	942.000000
779.193359	956.000000
779.229980	964.000000
779.266541	976.000000
779.303040	969.000000
779.339600	953.000000
779.376160	957.000000
779.412659	979.000000
779.449219	969.000000
779.485779	980.000000
779.522278	963.000000
779.558838	974.000000
779.595398	969.000000
779.631897	979.000000
779.668457	974.000000
779.705017	987.000000
779.741516	959.000000
779.778076	971.000000
779.814575	947.000000
779.851074	977.000000
779.887634	974.000000
779.924133	978.000000
779.960693	972.000000
779.997253	975.000000
780.033691	969.000000
780.070251	977.000000
780.106812	991.000000
780.143250	999.000000
780.179810	1001.000000
780.216370	1005.000000
780.252808	1018.000000
780.289368	1012.000000
780.325867	1029.000000
780.362366	1039.000000
780.398865	1062.000000
780.435364	1060.000000
780.471863	1056.000000
780.508423	1051.000000
780.544861	1045.000000
780.581421	1056.000000
780.617920	1037.000000
780.654419	1051.000000
780.690918	1052.000000
780.727417	1042.000000
780.763916	1035.000000
780.800415	1054.000000
780.836914	1051.000000
780.873352	1081.000000
780.909912	1062.000000
780.946411	1058.000000
780.982849	1053.000000
781.019348	1074.000000
781.055786	1071.000000
781.092346	1078.000000
781.128845	1081.000000
781.165283	1079.000000
781.201782	1068.000000
781.238281	1086.000000
781.274719	1080.000000
781.311218	1095.000000
781.347717	1110.000000
781.384155	1104.000000
781.420654	1101.000000
781.457092	1114.000000
781.493591	1121.000000
781.530090	1116.000000
781.566528	1129.000000
781.602966	1114.000000
781.639465	1129.000000
781.675903	1108.000000
781.712402	1114.000000
781.748901	1128.000000
781.785278	1115.000000
781.821777	1106.000000
781.858276	1110.000000
781.894714	1110.000000
781.931152	1104.000000
781.967651	1087.000000
782.004089	1098.000000
782.040527	1100.000000
782.076965	1100.000000
782.113403	1089.000000
782.149902	1076.000000
782.186340	1072.000000
782.222778	1099.000000
782.259277	1097.000000
782.295654	1083.000000
782.332092	1093.000000
782.368591	1085.000000
782.404968	1086.000000
782.441467	1124.000000
782.477905	1121.000000
782.514282	1128.000000
782.550781	1165.000000
782.587219	1135.000000
782.623596	1146.000000
782.660095	1154.000000
782.696472	1161.000000
782.732910	1149.000000
782.769348	1138.000000
782.805786	1101.000000
782.842224	1007.000000
782.878662	853.000000
782.915039	702.000000
782.951477	572.000000
782.987915	515.000000
783.024292	538.000000
783.060730	643.000000
783.097168	787.000000
783.133545	949.000000
783.169983	1055.000000
783.206421	1115.000000
783.242798	1137.000000
783.279236	1137.000000
783.315613	1143.000000
783.352051	1141.000000
783.388489	1121.000000
783.424866	1122.000000
783.461304	1131.000000
783.497681	1139.000000
783.534058	1134.000000
783.570496	1137.000000
783.606934	1154.000000
783.643250	1177.000000
783.679687	1169.000000
783.716125	1165.000000
783.752441	1163.000000
783.788879	1181.000000
783.825317	1203.000000
783.861633	1204.000000
783.898071	1222.000000
783.934448	1196.000000
783.970825	1225.000000
784.007263	1229.000000
784.043579	1245.000000
784.080017	1267.000000
784.116394	1247.000000
784.152710	1245.000000
784.189148	1223.000000
784.225525	1239.000000
784.261902	1232.000000
784.298279	1235.000000
784.334656	1227.000000
784.371033	1222.000000
784.407410	1218.000000
784.443787	1178.000000
784.480164	1210.000000
784.516541	1207.000000
784.552856	1217.000000
784.589233	1197.000000
784.625610	1200.000000
784.661987	1218.000000
784.698364	1220.000000
784.734741	1221.000000
784.771057	1239.000000
784.807434	1238.000000
784.843811	1243.000000
784.880127	1209.000000
784.916504	1256.000000
784.952881	1276.000000
784.989197	1294.000000
785.025574	1317.000000
785.061951	1299.000000
785.098267	1323.000000
785.134644	1331.000000
785.170959	1320.000000
785.207275	1377.000000
785.243652	1408.000000
785.279968	1399.000000
785.316345	1343.000000
785.352722	1333.000000
785.388977	1324.000000
785.425354	1312.000000
785.461731	1305.000000
785.498047	1301.000000
785.534363	1269.000000
785.570679	1243.000000
785.606995	1205.000000
785.643372	1205.000000
785.679687	1210.000000
785.716003	1217.000000
785.752380	1181.000000
785.788635	1178.000000
785.825012	1174.000000
785.861328	1178.000000
785.897644	1196.000000
785.933960	1238.000000
785.970337	1269.000000
786.006592	1295.000000
786.042908	1280.000000
786.079285	1287.000000
786.115540	1318.000000
786.151855	1365.000000
786.188171	1422.000000
786.224487	1441.000000
786.260803	1466.000000
786.297119	1507.000000
786.333435	1481.000000
786.369751	1482.000000
786.406006	1504.000000
786.442322	1509.000000
786.478638	1475.000000
786.514954	1440.000000
786.551270	1380.000000
786.587585	1348.000000
786.623840	1314.000000
786.660156	1329.000000
786.696472	1306.000000
786.732727	1252.000000
786.769043	1235.000000
786.805298	1207.000000
786.841614	1198.000000
786.877930	1228.000000
786.914124	1247.000000
786.950439	1276.000000
786.986755	1271.000000
787.023010	1261.000000
787.059326	1264.000000
787.095642	1301.000000
787.131836	1374.000000
787.168152	1370.000000
787.204468	1397.000000
787.240723	1409.000000
787.276978	1411.000000
787.313293	1419.000000
787.349548	1472.000000
787.385803	1490.000000
787.422058	1490.000000
787.458313	1485.000000
787.494629	1446.000000
787.530823	1439.000000
787.567139	1471.000000
787.603455	1453.000000
787.639648	1421.000000
787.675903	1429.000000
787.712219	1393.000000
787.748413	1359.000000
787.784729	1358.000000
787.820984	1334.000000
787.857178	1345.000000
787.893494	1318.000000
787.929749	1319.000000
787.965942	1305.000000
788.002258	1297.000000
788.038452	1309.000000
788.074707	1344.000000
788.110962	1351.000000
788.147217	1344.000000
788.183472	1337.000000
788.219727	1313.000000
788.255920	1316.000000
788.292175	1336.000000
788.328430	1333.000000
788.364624	1354.000000
788.400879	1364.000000
788.437134	1364.000000
788.473328	1339.000000
788.509583	1339.000000
788.545837	1350.000000
788.582031	1362.000000
788.618286	1380.000000
788.654480	1385.000000
788.690735	1380.000000
788.726990	1391.000000
788.763184	1396.000000
788.799377	1401.000000
788.835632	1424.000000
788.871826	1442.000000
788.908081	1420.000000
788.944336	1433.000000
788.980469	1426.000000
789.016724	1418.000000
789.052979	1432.000000
789.089111	1415.000000
789.125366	1419.000000
789.161621	1399.000000
789.197754	1384.000000
789.234009	1347.000000
789.270142	1345.000000
789.306396	1346.000000
789.342590	1347.000000
789.378784	1339.000000
789.414978	1317.000000
789.451233	1329.000000
789.487366	1321.000000
789.523621	1329.000000
789.559814	1359.000000
789.595947	1344.000000
789.632202	1352.000000
789.668335	1341.000000
789.704529	1355.000000
789.740784	1368.000000
789.776917	1384.000000
789.813110	1401.000000
789.849304	1430.000000
789.885498	1418.000000
789.921692	1418.000000
789.957886	1406.000000
789.994019	1408.000000
790.030212	1426.000000
790.066406	1459.000000
790.102539	1450.000000
790.138733	1439.000000
790.174927	1402.000000
790.211060	1395.000000
790.247253	1408.000000
790.283386	1415.000000
790.319580	1411.000000
790.355774	1388.000000
790.391907	1325.000000
790.428101	1206.000000
790.464294	1080.000000
790.500427	920.000000
790.536621	773.000000
790.572754	639.000000
790.608887	568.000000
790.645081	606.000000
790.681274	772.000000
790.717346	988.000000
790.753540	1195.000000
790.789734	1327.000000
790.825867	1382.000000
790.862000	1374.000000
790.898132	1379.000000
790.934265	1359.000000
790.970459	1341.000000
791.006592	1370.000000
791.042725	1391.000000
791.078918	1373.000000
791.114990	1350.000000
791.151184	1330.000000
791.187317	1324.000000
791.223389	1330.000000
791.259583	1346.000000
791.295715	1367.000000
791.331848	1362.000000
791.367981	1362.000000
791.404114	1364.000000
791.440247	1375.000000
791.476379	1394.000000
791.512451	1402.000000
791.548584	1443.000000
791.584778	1451.000000
791.620850	1445.000000
791.656982	1434.000000
791.693115	1420.000000
791.729187	1422.000000
791.765381	1435.000000
791.801514	1447.000000
791.837585	1430.000000
791.873718	1430.000000
791.909851	1452.000000
791.945923	1477.000000
791.982056	1475.000000
792.018188	1481.000000
792.054260	1500.000000
792.090393	1478.000000
792.126465	1459.000000
792.162598	1457.000000
792.198669	1463.000000
792.234741	1480.000000
792.270874	1492.000000
792.307007	1466.000000
792.343079	1455.000000
792.379150	1454.000000
792.415283	1432.000000
792.451355	1428.000000
792.487488	1430.000000
792.523560	1430.000000
792.559631	1432.000000
792.595764	1393.000000
792.631836	1391.000000
792.667908	1393.000000
792.703979	1396.000000
792.740051	1430.000000
792.776184	1422.000000
792.812256	1435.000000
792.848328	1408.000000
792.884399	1388.000000
792.920471	1385.000000
792.956543	1424.000000
792.992615	1442.000000
793.028748	1445.000000
793.064758	1431.000000
793.100830	1438.000000
793.136963	1429.000000
793.172974	1449.000000
793.209045	1432.000000
793.245178	1449.000000
793.281189	1431.000000
793.317261	1411.000000
793.353271	1398.000000
793.389404	1411.000000
793.425476	1434.000000
793.461487	1429.000000
793.497559	1443.000000
793.533630	1431.000000
793.569641	1410.000000
793.605713	1414.000000
793.641785	1387.000000
793.677795	1406.000000
793.713867	1393.000000
793.749878	1411.000000
793.785950	1420.000000
793.822021	1438.000000
793.858032	1403.000000
793.894104	1413.000000
793.930176	1437.000000
793.966187	1440.000000
794.002258	1424.000000
794.038269	1431.000000
794.074280	1393.000000
794.110352	1406.000000
794.146423	1395.000000
794.182373	1422.000000
794.218445	1427.000000
794.254517	1456.000000
794.290466	1414.000000
794.326538	1391.000000
794.362549	1389.000000
794.398560	1385.000000
794.434631	1376.000000
794.470581	1350.000000
794.506653	1332.000000
794.542664	1337.000000
794.578674	1304.000000
794.614685	1303.000000
794.650757	1301.000000
794.686707	1320.000000
794.722778	1339.000000
794.758789	1342.000000
794.794739	1334.000000
794.830811	1333.000000
794.866821	1335.000000
794.902771	1344.000000
794.938843	1344.000000
794.974792	1355.000000
795.010803	1391.000000
795.046814	1371.000000
795.082825	1363.000000
795.118835	1364.000000
795.154846	1343.000000
795.190796	1368.000000
795.226807	1357.000000
795.262817	1361.000000
795.298767	1325.000000
795.334778	1320.000000
795.370850	1292.000000
795.406799	1313.000000
795.442810	1310.000000
795.478821	1313.000000
795.514709	1286.000000
795.550720	1287.000000
795.586670	1237.000000
795.622681	1229.000000
795.658691	1232.000000
795.694641	1252.000000
795.730652	1240.000000
795.766663	1251.000000
795.802551	1229.000000
795.838562	1225.000000
795.874573	1224.000000
795.910522	1231.000000
795.946472	1224.000000
795.982483	1243.000000
796.018433	1219.000000
796.054382	1217.000000
796.090393	1210.000000
796.126282	1221.000000
796.162292	1237.000000
796.198242	1272.000000
796.234192	1282.000000
796.270203	1253.000000
796.306091	1255.000000
796.342041	1281.000000
796.378052	1262.000000
796.413940	1267.000000
796.449951	1277.000000
796.485901	1252.000000
796.521790	1230.000000
796.557800	1245.000000
796.593689	1235.000000
796.629639	1257.000000
796.665649	1275.000000
796.701599	1280.000000
796.737488	1265.000000
796.773437	1251.000000
796.809387	1254.000000
796.845337	1257.000000
796.881287	1281.000000
796.917175	1273.000000
796.953125	1299.000000
796.989075	1296.000000
797.024963	1261.000000
797.060913	1252.000000
797.096863	1279.000000
797.132751	1270.000000
797.168701	1254.000000
797.204590	1257.000000
797.240540	1220.000000
797.276489	1225.000000
797.312439	1221.000000
797.348328	1221.000000
797.384277	1239.000000
797.420166	1241.000000
797.456055	1239.000000
797.492004	1219.000000
797.527893	1200.000000
797.563843	1196.000000
797.599731	1196.000000
797.635620	1215.000000
797.671570	1234.000000
797.707520	1222.000000
797.743347	1204.000000
797.779297	1202.000000
797.815125	1217.000000
797.851074	1225.000000
797.887024	1254.000000
797.922913	1249.000000
797.958801	1232.000000
797.994690	1200.000000
798.030579	1191.000000
798.066467	1202.000000
798.102356	1204.000000
798.138245	1217.000000
798.174133	1214.000000
798.210083	1202.000000
798.245911	1192.000000
798.281799	1184.000000
798.317749	1191.000000
798.353577	1219.000000
798.389465	1210.000000
798.425293	1193.000000
798.461243	1212.000000
798.497131	1184.000000
798.532959	1188.000000
798.568848	1213.000000
798.604736	1220.000000
798.640564	1214.000000
798.676453	1184.000000
798.712402	1165.000000
798.748230	1171.000000
798.784119	1169.000000
798.820007	1183.000000
798.855835	1177.000000
798.891724	1177.000000
798.927551	1177.000000
798.963379	1166.000000
798.999268	1153.000000
799.035095	1153.000000
799.070984	1166.000000
799.106873	1172.000000
799.142700	1174.000000
799.178528	1160.000000
799.214417	1146.000000
799.250244	1163.000000
799.286133	1150.000000
799.321960	1167.000000
799.357788	1171.000000
799.393677	1182.000000
799.429504	1166.000000
799.465332	1146.000000
799.501221	1150.000000
799.537048	1173.000000
799.572876	1166.000000
799.608704	1170.000000
799.644531	1171.000000
799.680359	1160.000000
799.716248	1157.000000
799.752014	1167.000000
799.787903	1158.000000
799.823730	1174.000000
799.859558	1177.000000
799.895386	1158.000000
799.931213	1135.000000
799.967041	1105.000000
800.002869	1115.000000
800.038696	1128.000000
800.074463	1138.000000
800.110352	1113.000000
800.146179	1093.000000
800.181946	1102.000000
800.217773	1106.000000
800.253540	1114.000000
800.289429	1125.000000
800.325256	1109.000000
800.361023	1101.000000
800.396851	1075.000000
800.432678	1084.000000
800.468445	1082.000000
800.504272	1093.000000
800.540100	1083.000000
800.575867	1079.000000
800.611694	1084.000000
800.647461	1066.000000
800.683289	1045.000000
800.719116	1060.000000
800.754883	1049.000000
800.790649	1046.000000
800.826477	1042.000000
800.862244	1053.000000
800.898071	1009.000000
800.933838	1010.000000
800.969604	1026.000000
801.005432	1026.000000
801.041199	1053.000000
801.076965	1020.000000
801.112793	997.000000
801.148560	997.000000
801.184326	998.000000
801.220154	1001.000000
801.255859	984.000000
801.291687	983.000000
801.327454	981.000000
801.363281	997.000000
801.398987	967.000000
801.434814	957.000000
801.470520	983.000000
801.506287	962.000000
801.542114	961.000000
801.577820	952.000000
801.613647	960.000000
801.649414	948.000000
801.685120	941.000000
801.720886	955.000000
801.756714	954.000000
801.792419	951.000000
801.828186	944.000000
801.863892	936.000000
801.899719	945.000000
801.935486	939.000000
801.971252	945.000000
802.006958	943.000000
802.042725	938.000000
802.078430	917.000000
802.114197	923.000000
802.149963	937.000000
802.185669	923.000000
802.221436	937.000000
802.257202	933.000000
802.292908	925.000000
802.328674	921.000000
802.364441	906.000000
802.400146	920.000000
802.435913	920.000000
802.471558	939.000000
802.507324	924.000000
802.543091	908.000000
802.578796	919.000000
802.614502	925.000000
802.650269	926.000000
802.685974	920.000000
802.721741	933.000000
802.757446	923.000000
802.793152	923.000000
802.828918	904.000000
802.864624	900.000000
802.900330	911.000000
802.936035	915.000000
802.971802	908.000000
803.007446	911.000000
803.043213	882.000000
803.078857	892.000000
803.114624	873.000000
803.150330	872.000000
803.185974	874.000000
803.221741	871.000000
803.257446	871.000000
803.293152	874.000000
803.328857	852.000000
803.364563	851.000000
803.400208	859.000000
803.435974	861.000000
803.471680	853.000000
803.507324	840.000000
803.543030	839.000000
803.578735	830.000000
803.614441	829.000000
803.650146	848.000000
803.685791	843.000000
803.721497	839.000000
803.757202	822.000000
803.792847	831.000000
803.828552	826.000000
803.864258	817.000000
803.899902	814.000000
803.935608	813.000000
803.971313	806.000000
804.006958	797.000000
804.042664	793.000000
804.078308	798.000000
804.113953	793.000000
804.149658	795.000000
804.185364	789.000000
804.221008	798.000000
804.256714	789.000000
804.292297	781.000000
804.328003	773.000000
804.363708	773.000000
804.399292	771.000000
804.434998	773.000000
804.470703	757.000000
804.506287	768.000000
804.541992	759.000000
804.577637	763.000000
804.613281	761.000000
804.648926	758.000000
804.684570	762.000000
804.720215	748.000000
804.755920	744.000000
804.791565	741.000000
804.827209	762.000000
804.862854	747.000000
804.898437	749.000000
804.934143	752.000000
804.969788	761.000000
805.005371	752.000000
805.041077	753.000000
805.076721	750.000000
805.112305	735.000000
805.147949	739.000000
805.183655	734.000000
805.219238	729.000000
805.254883	734.000000
805.290466	735.000000
805.326111	734.000000
805.361755	733.000000
805.397400	746.000000
805.432983	744.000000
805.468628	732.000000
805.504211	730.000000
805.539856	737.000000
805.575500	736.000000
805.611084	733.000000
805.646729	723.000000
805.682373	731.000000
805.717957	726.000000
805.753601	731.000000
805.789246	710.000000
805.824768	721.000000
805.860413	720.000000
805.895996	715.000000
805.931641	718.000000
805.967224	729.000000
806.002869	704.000000
806.038452	707.000000
806.074036	720.000000
806.109619	705.000000
806.145264	707.000000
806.180847	706.000000
806.216431	697.000000
806.252014	691.000000
806.287659	686.000000
806.323181	703.000000
806.358826	696.000000
806.394409	684.000000
806.429993	673.000000
806.465576	686.000000
806.501160	671.000000
806.536743	658.000000
806.572327	676.000000
806.607910	684.000000
806.643494	679.000000
806.679077	665.000000
806.714661	665.000000
806.750244	661.000000
806.785828	654.000000
806.821350	658.000000
806.856934	668.000000
806.892517	653.000000
806.928101	651.000000
806.963684	648.000000
806.999268	655.000000
807.034790	628.000000
807.070374	634.000000
807.105896	626.000000
807.141479	622.000000
807.177063	632.000000
807.212585	612.000000
807.248169	621.000000
807.283752	629.000000
807.319275	618.000000
807.354858	626.000000
807.390381	619.000000
807.425903	618.000000
807.461487	608.000000
807.497070	607.000000
807.532593	610.000000
807.568115	610.000000
807.603699	599.000000
807.639221	602.000000
807.674744	601.000000
807.710266	606.000000
807.745850	603.000000
807.781372	605.000000
807.816895	598.000000
807.852417	600.000000
807.888000	600.000000
807.923523	592.000000
807.959045	590.000000
807.994629	585.000000
808.030090	577.000000
808.065613	585.000000
808.101135	600.000000
808.136658	588.000000
808.172241	578.000000
808.207764	592.000000
808.243225	575.000000
808.278809	583.000000
808.314270	583.000000
808.349792	572.000000
808.385315	565.000000
808.420837	582.000000
808.456360	576.000000
808.491882	572.000000
808.527344	568.000000
808.562866	578.000000
808.598389	573.000000
808.633850	569.000000
808.669434	560.000000
808.704895	571.000000
808.740417	562.000000
808.775940	556.000000
808.811462	546.000000
808.846924	545.000000
808.882385	544.000000
808.917847	533.000000
808.953369	544.000000
808.988892	543.000000
809.024353	551.000000
809.059875	552.000000
809.095398	546.000000
809.130798	537.000000
809.166321	539.000000
809.201843	527.000000
809.237305	533.000000
809.272766	533.000000
809.308228	521.000000
809.343750	520.000000
809.379211	527.000000
809.414734	526.000000
809.450134	532.000000
809.485657	499.000000
809.521118	512.000000
809.556580	512.000000
809.592102	515.000000
809.627502	506.000000
809.663025	505.000000
809.698486	500.000000
809.733887	499.000000
809.769409	505.000000
809.804871	495.000000
809.840271	507.000000
809.875793	493.000000
809.911194	500.000000
809.946655	496.000000
809.982178	481.000000
810.017639	497.000000
810.053040	483.000000
810.088501	480.000000
810.123901	481.000000
810.159424	480.000000
810.194885	474.000000
810.230286	488.000000
810.265747	482.000000
810.301208	473.000000
810.336609	484.000000
810.372070	469.000000
810.407532	467.000000
810.442932	473.000000
810.478394	478.000000
810.513794	468.000000
810.549255	475.000000
810.584717	459.000000
810.620117	454.000000
810.655518	466.000000
810.690979	460.000000
810.726379	456.000000
810.761841	456.000000
810.797302	453.000000
810.832642	459.000000
810.868103	453.000000
810.903564	447.000000
810.938904	453.000000
810.974365	441.000000
811.009827	453.000000
811.045166	449.000000
811.080627	443.000000
811.115967	442.000000
811.151428	442.000000
811.186829	441.000000
811.222229	439.000000
811.257629	429.000000
811.293091	437.000000
811.328430	448.000000
811.363892	435.000000
811.399292	439.000000
811.434631	437.000000
811.470093	444.000000
811.505493	429.000000
811.540833	434.000000
811.576294	433.000000
811.611694	434.000000
811.647034	422.000000
811.682434	426.000000
811.717773	435.000000
811.753235	438.000000
811.788635	427.000000
811.823975	429.000000
811.859375	448.000000
811.894775	419.000000
811.930115	424.000000
811.965515	417.000000
812.000916	424.000000
812.036255	417.000000
812.071655	423.000000
812.106995	419.000000
812.142395	418.000000
812.177795	422.000000
812.213196	422.000000
812.248474	421.000000
812.283875	417.000000
812.319214	413.000000
812.354614	417.000000
812.390015	409.000000
812.425293	405.000000
812.460693	409.000000
812.496094	409.000000
812.531433	397.000000
812.566772	404.000000
812.602173	393.000000
812.637451	397.000000
812.672852	397.000000
812.708191	409.000000
812.743530	390.000000
812.778931	389.000000
812.814270	388.000000
812.849609	399.000000
812.884949	389.000000
812.920227	382.000000
812.955627	393.000000
812.990967	393.000000
813.026306	385.000000
813.061646	376.000000
813.096985	371.000000
813.132324	370.000000
813.167664	363.000000
813.203003	379.000000
813.238281	363.000000
813.273682	359.000000
813.308960	352.000000
813.344299	360.000000
813.379639	367.000000
813.414978	367.000000
813.450256	363.000000
813.485596	367.000000
813.520874	354.000000
813.556213	361.000000
813.591614	357.000000
813.626831	353.000000
813.662170	354.000000
813.697510	364.000000
813.732788	350.000000
813.768127	364.000000
813.803467	355.000000
813.838745	356.000000
813.874084	355.000000
813.909363	353.000000
813.944641	342.000000
813.979980	339.000000
814.015320	349.000000
814.050598	349.000000
814.085876	345.000000
814.121155	355.000000
814.156494	346.000000
814.191772	341.000000
814.227051	342.000000
814.262390	345.000000
814.297668	345.000000
814.332947	346.000000
814.368225	335.000000
814.403564	337.000000
814.438782	340.000000
814.474121	333.000000
814.509338	337.000000
814.544617	342.000000
814.579956	335.000000
814.615173	346.000000
814.650513	339.000000
814.685791	334.000000
814.721008	335.000000
814.756348	341.000000
814.791626	334.000000
814.826843	327.000000
814.862122	328.000000
814.897400	329.000000
814.932678	323.000000
814.967957	321.000000
815.003235	327.000000
815.038452	319.000000
815.073730	313.000000
815.108948	328.000000
815.144226	321.000000
815.179504	323.000000
815.214722	315.000000
815.250000	316.000000
815.285278	319.000000
815.320496	318.000000
815.355774	323.000000
815.391052	313.000000
815.426270	318.000000
815.461487	318.000000
815.496765	308.000000
815.531982	294.000000
815.567261	315.000000
815.602539	316.000000
815.637695	309.000000
815.672974	313.000000
815.708191	310.000000
815.743408	315.000000
815.778687	305.000000
815.813904	312.000000
815.849121	301.000000
815.884399	300.000000
815.919556	302.000000
815.954834	302.000000
815.990051	300.000000
816.025269	308.000000
816.060486	297.000000
816.095703	298.000000
816.130920	298.000000
816.166199	296.000000
816.201416	296.000000
816.236572	306.000000
816.271851	293.000000
816.307007	299.000000
816.342224	283.000000
816.377441	291.000000
816.412659	283.000000
816.447876	292.000000
816.483093	281.000000
816.518250	293.000000
816.553467	285.000000
816.588745	289.000000
816.623901	274.000000
816.659119	273.000000
816.694275	277.000000
816.729492	276.000000
816.764709	307.000000
816.799927	277.000000
816.835083	283.000000
816.870300	278.000000
816.905457	276.000000
816.940674	285.000000
816.975830	266.000000
817.010986	274.000000
817.046204	272.000000
817.081421	269.000000
817.116577	269.000000
817.151733	279.000000
817.186951	278.000000
817.222107	274.000000
817.257324	277.000000
817.292419	273.000000
817.327637	264.000000
817.362854	269.000000
817.398010	263.000000
817.433167	270.000000
817.468323	266.000000
817.503479	268.000000
817.538635	283.000000
817.573853	277.000000
817.608948	272.000000
817.644165	266.000000
817.679321	269.000000
817.714478	268.000000
817.749634	272.000000
817.784790	281.000000
817.819946	276.000000
817.855103	252.000000
817.890198	264.000000
817.925415	254.000000
817.960571	269.000000
817.995667	263.000000
818.030823	263.000000
818.066040	261.000000
818.101135	267.000000
818.136292	261.000000
818.171448	253.000000
818.206543	259.000000
818.241699	264.000000
818.276855	259.000000
818.311951	261.000000
818.347107	249.000000
818.382263	261.000000
818.417358	264.000000
818.452515	267.000000
818.487610	265.000000
818.522766	262.000000
818.557922	261.000000
818.593018	258.000000
818.628113	256.000000
818.663269	248.000000
818.698364	261.000000
818.733521	258.000000
818.768677	255.000000
818.803711	250.000000
818.838867	253.000000
818.874023	249.000000
818.909058	249.000000
818.944214	252.000000
818.979370	251.000000
819.014404	249.000000
819.049561	244.000000
819.084595	247.000000
819.119751	246.000000
819.154846	251.000000
819.189941	248.000000
819.225037	242.000000
819.260193	241.000000
819.295227	242.000000
819.330322	238.000000
819.365479	235.000000
819.400513	265.000000
819.435608	236.000000
819.470764	233.000000
819.505798	235.000000
819.540894	244.000000
819.575989	236.000000
819.611084	242.000000
819.646179	245.000000
819.681213	242.000000
819.716309	239.000000
819.751404	240.000000
819.786438	244.000000
819.821533	236.000000
819.856628	234.000000
819.891663	237.000000
819.926758	240.000000
819.961853	241.000000
819.996887	230.000000
820.031982	236.000000
820.067017	229.000000
820.102112	264.000000
820.137207	230.000000
820.172302	250.000000
820.207275	228.000000
820.242371	229.000000
820.277405	225.000000
820.312500	230.000000
820.347534	227.000000
820.382568	236.000000
820.417664	226.000000
820.452759	226.000000
820.487732	221.000000
820.522827	233.000000
820.557861	224.000000
820.592896	228.000000
820.627930	230.000000
820.662964	229.000000
820.698059	233.000000
820.733093	231.000000
820.768127	228.000000
820.803162	231.000000
820.838196	227.000000
820.873230	227.000000
820.908264	231.000000
820.943298	223.000000
820.978333	232.000000
821.013367	228.000000
821.048401	231.000000
821.083435	229.000000
821.118469	218.000000
821.153503	234.000000
821.188477	227.000000
821.223511	222.000000
821.258484	228.000000
821.293579	228.000000
821.328613	220.000000
821.363647	222.000000
821.398621	213.000000
821.433655	218.000000
821.468628	234.000000
821.503662	218.000000
821.538696	231.000000
821.573669	211.000000
821.608704	223.000000
821.643677	217.000000
821.678650	229.000000
821.713684	227.000000
821.748718	220.000000
821.783691	216.000000
821.818726	223.000000
821.853638	221.000000
821.888672	219.000000
821.923706	213.000000
821.958618	218.000000
821.993652	217.000000
822.028687	219.000000
822.063599	224.000000
822.098633	220.000000
822.133667	212.000000
822.168579	216.000000
822.203613	220.000000
822.238586	208.000000
822.273560	213.000000
822.308533	215.000000
822.343567	212.000000
822.378479	217.000000
822.413452	210.000000
822.448425	211.000000
822.483398	221.000000
822.518372	219.000000
822.553345	206.000000
822.588318	223.000000
822.623291	214.000000
822.658203	210.000000
822.693237	215.000000
822.728210	215.000000
822.763123	211.000000
822.798096	215.000000
822.833069	214.000000
822.867981	208.000000
822.902954	211.000000
822.937927	210.000000
822.972900	220.000000
823.007874	204.000000
823.042725	213.000000
823.077698	220.000000
823.112671	208.000000
823.147583	210.000000
823.182556	213.000000
823.217529	214.000000
823.252441	207.000000
823.287415	217.000000
823.322388	212.000000
823.357239	205.000000
823.392212	219.000000
823.427185	210.000000
823.462097	204.000000
823.497009	206.000000
823.531982	207.000000
823.566895	206.000000
823.601807	202.000000
823.636719	199.000000
823.671631	209.000000
823.706604	198.000000
823.741455	204.000000
823.776428	198.000000
823.811340	208.000000
823.846252	209.000000
823.881165	209.000000
823.916138	202.000000
823.950989	211.000000
823.985901	198.000000
824.020813	203.000000
824.055725	203.000000
824.090637	201.000000
824.125610	201.000000
824.160461	206.000000
824.195374	205.000000
824.230225	209.000000
824.265198	201.000000
824.300110	202.000000
824.334961	211.000000
824.369873	194.000000
824.404785	205.000000
824.439636	212.000000
824.474548	193.000000
824.509460	195.000000
824.544312	208.000000
824.579224	208.000000
824.614075	209.000000
824.648987	203.000000
824.683899	205.000000
824.718811	202.000000
824.753662	203.000000
824.788574	210.000000
824.823364	204.000000
824.858276	200.000000
824.893188	206.000000
824.928040	205.000000
824.962952	203.000000
824.997803	205.000000
825.032654	205.000000
825.067566	201.000000
825.102417	201.000000
825.137268	201.000000
825.172119	198.000000
825.206970	195.000000
825.241882	201.000000
825.276733	193.000000
825.311646	197.000000
825.346436	192.000000
825.381348	192.000000
825.416138	197.000000
825.450989	196.000000
825.485901	187.000000
825.520691	189.000000
825.555542	189.000000
825.590454	198.000000
825.625244	189.000000
825.660095	211.000000
825.695007	198.000000
825.729797	195.000000
825.764648	191.000000
825.799438	193.000000
825.834290	196.000000
825.869202	191.000000
825.903992	193.000000
825.938843	196.000000
825.973694	191.000000
826.008484	209.000000
826.043335	195.000000
826.078186	191.000000
826.112976	201.000000
826.147827	203.000000
826.182678	207.000000
826.217468	184.000000
826.252319	202.000000
826.287109	193.000000
826.321899	197.000000
826.356750	195.000000
826.391541	196.000000
826.426392	197.000000
826.461182	196.000000
826.495972	188.000000
826.530823	189.000000
826.565613	193.000000
826.600403	191.000000
826.635254	194.000000
826.670044	183.000000
826.704834	189.000000
826.739685	191.000000
826.774475	195.000000
826.809265	195.000000
826.844055	193.000000
826.878906	199.000000
826.913635	192.000000
826.948425	196.000000
826.983215	192.000000
827.018005	199.000000
827.052856	190.000000
827.087585	198.000000
827.122375	186.000000
827.157227	191.000000
827.191956	206.000000
827.226746	192.000000
827.261536	190.000000
827.296265	189.000000
827.331116	191.000000
827.365906	194.000000
827.400635	186.000000
827.435425	184.000000
827.470215	195.000000
827.504944	191.000000
827.539734	196.000000
827.574463	190.000000
827.609253	195.000000
827.644043	191.000000
827.678772	192.000000
827.713562	188.000000
827.748352	188.000000
827.783081	187.000000
827.817871	186.000000
827.852600	190.000000
827.887329	186.000000
827.922119	187.000000
827.956848	195.000000
827.991638	204.000000
828.026367	190.000000
828.061157	190.000000
828.095886	188.000000
828.130615	205.000000
828.165344	182.000000
828.200073	193.000000
828.234863	187.000000
828.269592	190.000000
828.304321	194.000000
828.339111	188.000000
828.373779	188.000000
828.408569	191.000000
828.443298	193.000000
828.477966	186.000000
828.512756	190.000000
828.547424	185.000000
828.582214	190.000000
828.616943	187.000000
828.651672	189.000000
828.686340	189.000000
828.721130	185.000000
828.755798	182.000000
828.790527	189.000000
828.825256	187.000000
828.859924	185.000000
828.894714	191.000000
828.929443	192.000000
828.964111	183.000000
828.998840	191.000000
829.033569	179.000000
829.068237	189.000000
829.102966	185.000000
829.137634	185.000000
829.172363	187.000000
829.207092	190.000000
829.241821	180.000000
829.276489	181.000000
829.311157	187.000000
829.345825	184.000000
829.380554	186.000000
829.415283	184.000000
829.449951	181.000000
829.484619	193.000000
829.519348	194.000000
829.554016	185.000000
829.588745	184.000000
829.623413	181.000000
829.658081	193.000000
829.692749	183.000000
829.727417	195.000000
829.762146	189.000000
829.796814	185.000000
829.831482	183.000000
829.866150	184.000000
829.900879	185.000000
829.935486	192.000000
829.970154	185.000000
830.004883	200.000000
830.039490	189.000000
830.074219	182.000000
830.108887	191.000000
830.143494	190.000000
830.178223	181.000000
830.212891	185.000000
830.247498	185.000000
830.282166	194.000000
830.316772	191.000000
830.351501	185.000000
830.386169	181.000000
830.420776	184.000000
830.455444	185.000000
830.490112	180.000000
830.524719	179.000000
830.559387	189.000000
830.594055	186.000000
830.628662	188.000000
830.663330	183.000000
830.697998	194.000000
830.732605	183.000000
830.767273	192.000000
830.801941	184.000000
830.836487	197.000000
830.871155	188.000000
830.905762	188.000000
830.940430	171.000000
830.975098	181.000000
831.009644	183.000000
831.044312	197.000000
831.078979	186.000000
831.113525	178.000000
831.148193	186.000000
831.182861	185.000000
831.217407	191.000000
831.252075	204.000000
831.286621	181.000000
831.321289	181.000000
831.355896	185.000000
831.390564	195.000000
831.425110	183.000000
831.459778	192.000000
831.494324	199.000000
831.528931	188.000000
831.563599	194.000000
831.598145	179.000000
831.632751	183.000000
831.667419	182.000000
831.701965	193.000000
831.736572	188.000000
831.771179	183.000000
831.805786	180.000000
831.840393	189.000000
831.874939	179.000000
831.909546	192.000000
831.944153	179.000000
831.978760	186.000000
832.013306	178.000000
832.047913	188.000000
832.082458	197.000000
832.117065	182.000000
832.151672	193.000000
832.186218	188.000000
832.220825	187.000000
832.255432	177.000000
832.289978	181.000000
832.324585	189.000000
832.359192	185.000000
832.393677	188.000000
832.428284	189.000000
832.462830	184.000000
832.497437	185.000000
832.531982	184.000000
832.566589	177.000000
832.601135	184.000000
832.635681	171.000000
832.670227	185.000000
832.704773	189.000000
832.739380	187.000000
832.773926	182.000000
832.808472	183.000000
832.843079	184.000000
832.877563	188.000000
832.912170	181.000000
832.946716	178.000000
832.981201	186.000000
833.015808	194.000000
833.050293	183.000000
833.084839	180.000000
833.119446	184.000000
833.153992	187.000000
833.188477	182.000000
833.223022	184.000000
833.257568	190.000000
833.292114	193.000000
833.326660	198.000000
833.361145	186.000000
833.395691	178.000000
833.430237	186.000000
833.464783	189.000000
833.499329	182.000000
833.533875	178.000000
833.568359	185.000000
833.602905	190.000000
833.637390	189.000000
833.671875	182.000000
833.706421	183.000000
833.740906	181.000000
833.775452	175.000000
833.809998	184.000000
833.844482	192.000000
833.879028	185.000000
833.913513	182.000000
833.947998	190.000000
833.982544	177.000000
834.017090	180.000000
834.051514	177.000000
834.086060	188.000000
834.120544	182.000000
834.155029	189.000000
834.189575	178.000000
834.223999	190.000000
834.258545	187.000000
834.293030	185.000000
834.327515	184.000000
834.362000	181.000000
834.396545	188.000000
834.430969	184.000000
834.465454	188.000000
834.500000	181.000000
834.534424	182.000000
834.568970	176.000000
834.603455	174.000000
834.637878	178.000000
834.672363	186.000000
834.706909	185.000000
834.741333	181.000000
834.775818	179.000000
834.810242	182.000000
834.844727	184.000000
834.879211	182.000000
834.913635	187.000000
834.948181	183.000000
834.982666	186.000000
835.017090	184.000000
835.051575	191.000000
835.086060	184.000000
835.120483	190.000000
835.154907	186.000000
835.189331	183.000000
835.223816	187.000000
835.258301	177.000000
835.292786	182.000000
835.327209	192.000000
835.361694	184.000000
835.396057	185.000000
835.430542	189.000000
835.465027	185.000000
835.499390	184.000000
835.533875	206.000000
835.568359	183.000000
835.602722	175.000000
835.637207	193.000000
835.671692	181.000000
835.706055	203.000000
835.740540	187.000000
835.774902	191.000000
835.809387	187.000000
835.843811	185.000000
835.878235	186.000000
835.912659	184.000000
835.947083	185.000000
835.981506	187.000000
836.015930	178.000000
836.050354	190.000000
836.084778	191.000000
836.119202	195.000000
836.153625	196.000000
836.187988	180.000000
836.222473	180.000000
836.256897	190.000000
836.291260	183.000000
836.325684	189.000000
836.360046	181.000000
836.394470	183.000000
836.428894	193.000000
836.463318	181.000000
836.497681	189.000000
836.532104	194.000000
836.566467	185.000000
836.600891	182.000000
836.635315	192.000000
836.669678	190.000000
836.704102	187.000000
836.738525	191.000000
836.772888	175.000000
836.807251	184.000000
836.841675	187.000000
836.876038	180.000000
836.910461	181.000000
836.944763	191.000000
836.979187	184.000000
837.013611	190.000000
837.047974	177.000000
837.082336	198.000000
837.116699	189.000000
837.151062	186.000000
837.185486	182.000000
837.219849	180.000000
837.254211	192.000000
837.288574	184.000000
837.322937	177.000000
837.357300	170.000000
837.391663	198.000000
837.426086	187.000000
837.460388	185.000000
837.494751	186.000000
837.529114	183.000000
837.563477	190.000000
837.597839	186.000000
837.632141	182.000000
837.666565	186.000000
837.700928	184.000000
837.735229	187.000000
837.769592	190.000000
837.803955	191.000000
837.838257	181.000000
837.872620	181.000000
837.906982	192.000000
837.941284	182.000000
837.975647	186.000000
838.010010	193.000000
838.044312	180.000000
838.078674	182.000000
838.112976	183.000000
838.147339	186.000000
838.181702	186.000000
838.216003	198.000000
838.250366	187.000000
838.284668	187.000000
838.318970	178.000000
838.353333	185.000000
838.387634	184.000000
838.421936	188.000000
838.456299	183.000000
838.490601	194.000000
838.524902	191.000000
838.559265	191.000000
838.593567	190.000000
838.627869	180.000000
838.662170	188.000000
838.696472	181.000000
838.730774	185.000000
838.765137	190.000000
838.799377	173.000000
838.833740	185.000000
838.868042	188.000000
838.902283	177.000000
838.936646	193.000000
838.970947	187.000000
839.005188	194.000000
839.039551	178.000000
839.073792	190.000000
839.108093	186.000000
839.142395	193.000000
839.176697	179.000000
839.210937	188.000000
839.245300	193.000000
839.279541	182.000000
839.313843	187.000000
839.348145	192.000000
839.382385	185.000000
839.416687	197.000000
839.450989	186.000000
839.485229	183.000000
839.519531	180.000000
839.553833	193.000000
839.588013	187.000000
839.622314	192.000000
839.656555	190.000000
839.690857	182.000000
839.725159	180.000000
839.759460	185.000000
839.793640	180.000000
839.827942	184.000000
839.862183	179.000000
839.896423	186.000000
839.930725	194.000000
839.964966	195.000000
839.999207	189.000000
840.033508	197.000000
840.067688	181.000000
840.101990	195.000000
840.136230	185.000000
840.170471	194.000000
840.204712	182.000000
840.238953	187.000000
840.273193	188.000000
840.307434	193.000000
840.341736	185.000000
840.375916	181.000000
840.410217	185.000000
840.444397	193.000000
840.478638	190.000000
840.512878	192.000000
840.547119	187.000000
840.581360	187.000000
840.615601	199.000000
840.649780	196.000000
840.684021	186.000000
840.718262	191.000000
840.752441	192.000000
840.786682	188.000000
840.820862	192.000000
840.855103	194.000000
840.889343	190.000000
840.923584	191.000000
840.957764	185.000000
840.992004	185.000000
841.026184	199.000000
841.060425	184.000000
841.094666	182.000000
841.128845	185.000000
841.163025	186.000000
841.197266	191.000000
841.231445	189.000000
841.265686	186.000000
841.299866	183.000000
841.334045	189.000000
841.368286	187.000000
841.402405	194.000000
841.436646	189.000000
841.470825	179.000000
841.505005	191.000000
841.539185	178.000000
841.573425	184.000000
841.607544	187.000000
841.641785	186.000000
841.675964	178.000000
841.710144	188.000000
841.744324	179.000000
841.778503	189.000000
841.812683	183.000000
841.846863	192.000000
841.881042	192.000000
841.915222	188.000000
841.949402	199.000000
841.983521	180.000000
842.017700	185.000000
842.051880	189.000000
842.086060	190.000000
842.120239	186.000000
842.154419	184.000000
842.188538	190.000000
842.222717	186.000000
842.256897	193.000000
842.291016	188.000000
842.325195	191.000000
842.359375	199.000000
842.393494	196.000000
842.427673	187.000000
842.461853	190.000000
842.495911	196.000000
842.530090	186.000000
842.564209	189.000000
842.598389	184.000000
842.632568	189.000000
842.666626	189.000000
842.700806	185.000000
842.734985	182.000000
842.769043	189.000000
842.803223	187.000000
842.837402	189.000000
842.871460	182.000000
842.905640	199.000000
842.939697	182.000000
842.973877	188.000000
843.007996	191.000000
843.042175	196.000000
843.076233	187.000000
843.110413	193.000000
843.144470	194.000000
843.178589	191.000000
843.212769	184.000000
843.246826	193.000000
843.280945	179.000000
843.315125	190.000000
843.349182	181.000000
843.383301	190.000000
843.417419	199.000000
843.451538	190.000000
843.485657	183.000000
843.519714	188.000000
843.553833	185.000000
843.587952	185.000000
843.622070	180.000000
843.656128	189.000000
843.690247	180.000000
843.724304	186.000000
843.758423	189.000000
843.792542	186.000000
843.826599	187.000000
843.860718	191.000000
843.894836	180.000000
843.928894	188.000000
843.963013	188.000000
843.997070	183.000000
844.031128	181.000000
844.065247	189.000000
844.099304	190.000000
844.133362	186.000000
844.167480	189.000000
844.201599	192.000000
844.235596	191.000000
844.269714	185.000000
844.303711	188.000000
844.337830	177.000000
844.371948	191.000000
844.405945	184.000000
844.440063	183.000000
844.474121	201.000000
844.508118	188.000000
844.542236	189.000000
844.576294	190.000000
844.610352	183.000000
844.644409	186.000000
844.678406	179.000000
844.712524	191.000000
844.746582	193.000000
844.780640	185.000000
844.814636	183.000000
844.848755	201.000000
844.882751	182.000000
844.916809	191.000000
844.950867	186.000000
844.984863	197.000000
845.018921	180.000000
845.052979	182.000000
845.086975	190.000000
845.121033	179.000000
845.155090	182.000000
845.189087	193.000000
845.223145	185.000000
845.257141	190.000000
845.291199	190.000000
845.325256	196.000000
845.359253	188.000000
845.393250	198.000000
845.427307	183.000000
845.461304	189.000000
845.495361	189.000000
845.529358	199.000000
845.563354	189.000000
845.597412	185.000000
845.631409	195.000000
845.665405	199.000000
845.699463	192.000000
845.733459	186.000000
845.767456	196.000000
845.801453	188.000000
845.835449	192.000000
845.869446	194.000000
845.903503	194.000000
845.937439	183.000000
845.971497	194.000000
846.005493	182.000000
846.039429	196.000000
846.073486	195.000000
846.107483	186.000000
846.141418	186.000000
846.175476	188.000000
846.209473	189.000000
846.243408	183.000000
846.277405	193.000000
846.311401	186.000000
846.345337	184.000000
846.379395	196.000000
846.413330	181.000000
846.447327	196.000000
846.481323	179.000000
846.515259	186.000000
846.549255	181.000000
846.583252	190.000000
846.617187	185.000000
846.651184	195.000000
846.685120	183.000000
846.719055	198.000000
846.753052	185.000000
846.786987	191.000000
846.820984	185.000000
846.854980	192.000000
846.888916	181.000000
846.922852	194.000000
846.956848	193.000000
846.990723	184.000000
847.024719	189.000000
847.058716	187.000000
847.092590	192.000000
847.126587	189.000000
847.160522	183.000000
847.194458	195.000000
847.228455	186.000000
847.262390	179.000000
847.296265	186.000000
847.330261	199.000000
847.364136	189.000000
847.398132	186.000000
847.432068	191.000000
847.466003	186.000000
847.499939	188.000000
847.533875	192.000000
847.567749	183.000000
847.601746	189.000000
847.635681	193.000000
847.669556	181.000000
847.703491	193.000000
847.737427	204.000000
847.771301	182.000000
847.805237	187.000000
847.839233	187.000000
847.873108	187.000000
847.907043	190.000000
847.940918	193.000000
847.974854	191.000000
848.008789	193.000000
848.042664	191.000000
848.076538	189.000000
848.110474	193.000000
848.144348	189.000000
848.178284	182.000000
848.212219	184.000000
848.246094	183.000000
848.279968	188.000000
848.313904	192.000000
848.347778	189.000000
848.381653	184.000000
848.415588	183.000000
848.449463	182.000000
848.483337	185.000000
848.517212	191.000000
848.551086	184.000000
848.585022	184.000000
848.618835	193.000000
848.652771	185.000000
848.686646	181.000000
848.720520	195.000000
848.754395	186.000000
848.788330	187.000000
848.822144	191.000000
848.856018	181.000000
848.889954	194.000000
848.923767	187.000000
848.957642	185.000000
848.991577	189.000000
849.025391	185.000000
849.059265	188.000000
849.093079	182.000000
849.126953	184.000000
849.160828	199.000000
849.194641	184.000000
849.228577	190.000000
849.262451	187.000000
849.296265	183.000000
849.330139	186.000000
849.364014	192.000000
849.397827	188.000000
849.431702	186.000000
849.465515	192.000000
849.499329	180.000000
849.533203	187.000000
849.567078	179.000000
849.600891	189.000000
849.634766	191.000000
849.668518	190.000000
849.702393	188.000000
849.736267	183.000000
849.770020	202.000000
849.803894	191.000000
849.837769	189.000000
849.871521	184.000000
849.905396	190.000000
849.939270	186.000000
849.973022	185.000000
850.006897	191.000000
850.040710	192.000000
850.074524	189.000000
850.108337	185.000000
850.142151	187.000000
850.175964	193.000000
850.209778	182.000000
850.243530	175.000000
850.277405	196.000000
850.311218	187.000000
850.344971	185.000000
850.378845	193.000000
850.412659	180.000000
850.446411	193.000000
850.480225	190.000000
850.514038	193.000000
850.547791	184.000000
850.581665	191.000000
850.615417	183.000000
850.649231	190.000000
850.683044	184.000000
850.716858	186.000000
850.750610	187.000000
850.784424	195.000000
850.818176	185.000000
850.851929	188.000000
850.885742	185.000000
850.919495	186.000000
850.953308	194.000000
850.987122	197.000000
851.020874	181.000000
851.054626	185.000000
851.088440	195.000000
851.122192	191.000000
851.156006	190.000000
851.189697	185.000000
851.223511	182.000000
851.257263	198.000000
851.291077	193.000000
851.324829	187.000000
851.358582	187.000000
851.392334	188.000000
851.426086	187.000000
851.459900	191.000000
851.493591	185.000000
851.527344	184.000000
851.561157	191.000000
851.594849	190.000000
851.628662	188.000000
851.662415	193.000000
851.696106	189.000000
851.729858	186.000000
851.763611	185.000000
851.797363	186.000000
851.831116	182.000000
851.864868	189.000000
851.898560	191.000000
851.932312	185.000000
851.966064	192.000000
851.999817	186.000000
852.033569	182.000000
852.067261	188.000000
852.101013	183.000000
852.134766	181.000000
852.168457	179.000000
852.202209	194.000000
852.235901	183.000000
852.269592	189.000000
852.303345	198.000000
852.337036	187.000000
852.370789	190.000000
852.404541	193.000000
852.438171	183.000000
852.471924	185.000000
852.505676	179.000000
852.539307	187.000000
852.573059	189.000000
852.606812	189.000000
852.640442	187.000000
852.674194	198.000000
852.707886	196.000000
852.741577	192.000000
852.775269	182.000000
852.809021	193.000000
852.842651	191.000000
852.876404	192.000000
852.910034	186.000000
852.943787	193.000000
852.977478	189.000000
853.011108	184.000000
853.044861	183.000000
853.078552	200.000000
853.112183	191.000000
853.145874	191.000000
853.179626	179.000000
853.213257	189.000000
853.246948	186.000000
853.280640	196.000000
853.314270	182.000000
853.347961	193.000000
853.381653	190.000000
853.415283	194.000000
853.448975	183.000000
853.482605	188.000000
853.516296	188.000000
853.549988	181.000000
853.583618	189.000000
853.617310	192.000000
853.651001	185.000000
853.684631	186.000000
853.718323	186.000000
853.751953	196.000000
853.785583	179.000000
853.819275	192.000000
853.852966	184.000000
853.886536	179.000000
853.920227	183.000000
853.953918	196.000000
853.987488	185.000000
854.021179	195.000000
854.054749	193.000000
854.088440	195.000000
854.122131	187.000000
854.155701	192.000000
854.189331	183.000000
854.223022	191.000000
854.256592	188.000000
854.290283	185.000000
854.323914	191.000000
854.357483	189.000000
854.391174	190.000000
854.424744	198.000000
854.458374	189.000000
854.492065	202.000000
854.525696	189.000000
854.559265	194.000000
854.592896	202.000000
854.626465	186.000000
854.660095	186.000000
854.693787	186.000000
854.727356	189.000000
854.760986	190.000000
854.794617	190.000000
854.828186	187.000000
854.861816	191.000000
854.895447	187.000000
854.929016	193.000000
854.962585	189.000000
854.996155	196.000000
855.029785	188.000000
855.063416	190.000000
855.097046	191.000000
855.130615	183.000000
855.164185	192.000000
855.197754	190.000000
855.231384	189.000000
855.264954	186.000000
855.298523	188.000000
855.332153	192.000000
855.365723	188.000000
855.399292	186.000000
855.432922	183.000000
855.466492	185.000000
855.500061	180.000000
855.533630	185.000000
855.567200	190.000000
855.600769	191.000000
855.634338	192.000000
855.667969	189.000000
855.701477	184.000000
855.735046	189.000000
855.768616	175.000000
855.802185	189.000000
855.835754	201.000000
855.869324	179.000000
855.902893	185.000000
855.936401	195.000000
855.969971	186.000000
856.003540	186.000000
856.037109	193.000000
856.070618	187.000000
856.104187	185.000000
856.137695	190.000000
856.171265	178.000000
856.204834	189.000000
856.238403	194.000000
856.271912	182.000000
856.305481	194.000000
856.338989	179.000000
856.372559	192.000000
856.406128	190.000000
856.439636	192.000000
856.473145	184.000000
856.506653	194.000000
856.540222	189.000000
856.573792	194.000000
856.607300	191.000000
856.640808	183.000000
856.674377	184.000000
856.707825	218.000000
856.741394	187.000000
856.774902	183.000000
856.808472	176.000000
856.841980	193.000000
856.875488	189.000000
856.908936	183.000000
856.942505	185.000000
856.976013	188.000000
857.009521	179.000000
857.043030	189.000000
857.076477	185.000000
857.110046	190.000000
857.143555	183.000000
857.177063	189.000000
857.210571	185.000000
857.244080	184.000000
857.277527	186.000000
857.311035	184.000000
857.344543	193.000000
857.378052	187.000000
857.411499	191.000000
857.445068	195.000000
857.478516	182.000000
857.512024	181.000000
857.545532	190.000000
857.578979	189.000000
857.612427	194.000000
857.645874	190.000000
857.679382	189.000000
857.712891	194.000000
857.746399	190.000000
857.779846	191.000000
857.813354	194.000000
857.846741	184.000000
857.880249	182.000000
857.913757	193.000000
857.947266	192.000000
857.980652	187.000000
858.014160	189.000000
858.047546	186.000000
858.081055	186.000000
858.114563	197.000000
858.147949	185.000000
858.181458	187.000000
858.214844	191.000000
858.248352	181.000000
858.281799	190.000000
858.315308	198.000000
858.348694	195.000000
858.382141	192.000000
858.415588	192.000000
858.449036	191.000000
858.482483	187.000000
858.515930	182.000000
858.549377	187.000000
858.582825	194.000000
858.616211	189.000000
858.649658	189.000000
858.683105	183.000000
858.716553	186.000000
858.750000	184.000000
858.783386	184.000000
858.816833	183.000000
858.850281	190.000000
858.883728	189.000000
858.917114	185.000000
858.950562	199.000000
858.983948	192.000000
859.017395	193.000000
859.050781	189.000000
859.084167	185.000000
859.117615	181.000000
859.151062	193.000000
859.184448	185.000000
859.217834	188.000000
859.251282	188.000000
859.284668	182.000000
859.318054	181.000000
859.351440	188.000000
859.384888	194.000000
859.418274	181.000000
859.451721	184.000000
859.485046	188.000000
859.518494	191.000000
859.551819	181.000000
859.585266	191.000000
859.618652	189.000000
859.652039	183.000000
859.685425	183.000000
859.718811	180.000000
859.752197	176.000000
859.785583	198.000000
859.819031	198.000000
859.852356	192.000000
859.885742	183.000000
859.919067	189.000000
859.952454	185.000000
859.985901	193.000000
860.019287	182.000000
860.052612	0.000000
860.085999	0.000000
860.119324	0.000000
860.152710	0.000000
860.186096	0.000000
860.219421	0.000000
860.252808	0.000000
860.286133	0.000000
860.319519	0.000000
860.352905	0.000000
860.386292	0.000000
860.419617	0.000000
860.452942	0.000000
860.486267	0.000000
860.519653	0.000000
860.553040	0.000000
860.586365	0.000000
860.619690	0.000000
860.653076	0.000000
860.686340	0.000000
860.719727	0.000000
860.753113	0.000000
860.786377	0.000000
860.819763	0.000000
860.853027	0.000000
860.886414	0.000000
860.919739	0.000000
860.953125	0.000000
860.986389	0.000000
861.019714	0.000000
861.053040	0.000000
861.086365	0.000000
861.119690	0.000000
861.153076	0.000000
861.186340	0.000000
861.219666	0.000000
861.252930	0.000000
861.286316	0.000000
861.319641	0.000000
861.352905	0.000000
861.386230	0.000000
861.419495	0.000000
861.452820	0.000000
861.486145	0.000000
861.519470	0.000000
861.552734	0.000000
861.586060	0.000000
861.619324	0.000000
861.652649	0.000000
861.685974	0.000000
861.719238	0.000000
861.752563	0.000000
861.785828	0.000000
861.819092	0.000000
861.852417	0.000000
861.885742	0.000000
861.918945	0.000000
861.952271	0.000000
861.985535	0.000000
862.018799	0.000000
862.052124	0.000000
862.085449	0.000000
862.118652	0.000000
862.151978	0.000000
862.185181	0.000000
862.218506	0.000000
862.251770	0.000000
862.285034	0.000000
862.318298	0.000000
862.351562	0.000000
862.384827	0.000000
862.418091	0.000000
862.451355	0.000000
862.484619	0.000000
862.517883	0.000000
862.551086	0.000000
862.584351	0.000000
862.617676	0.000000
862.650940	0.000000
862.684143	0.000000
862.717407	0.000000
862.750610	0.000000
862.783875	0.000000
862.817139	0.000000
862.850342	0.000000
862.883606	0.000000
862.916870	0.000000
862.950073	0.000000
862.983337	0.000000
863.016602	0.000000
863.049805	0.000000
863.083069	0.000000
863.116211	0.000000
863.149475	0.000000
863.182739	0.000000
863.216003	0.000000
863.249146	0.000000
863.282410	0.000000
863.315613	0.000000
863.348816	0.000000
863.382080	0.000000
863.415222	0.000000
863.448486	0.000000
863.481689	0.000000
863.514893	0.000000
863.548157	0.000000
863.581360	0.000000
863.614502	0.000000
863.647766	0.000000
863.680908	0.000000
863.714172	0.000000
863.747375	0.000000
863.780579	0.000000
863.813721	0.000000
863.846985	0.000000
863.880127	0.000000
863.913330	0.000000
863.946533	0.000000
863.979675	0.000000
864.012939	0.000000
