Model Number: SPM-001-M   
Serial Number: 10090201
Firmware Version: 004.17.6
Exposure Time: 500000.000000us
Data Taken on: 27-08-2020 09:35:06.480
Wavelength	Amplitude
733.770752	0.000000
733.808716	0.000000
733.846619	0.000000
733.884583	0.000000
733.922546	0.000000
733.960449	0.000000
733.998413	0.000000
734.036377	0.000000
734.074219	0.000000
734.112183	0.000000
734.150085	0.000000
734.188049	0.000000
734.226013	0.000000
734.263916	0.000000
734.301819	0.000000
734.339783	0.000000
734.377686	0.000000
734.415588	0.000000
734.453552	0.000000
734.491455	0.000000
734.529419	0.000000
734.567322	0.000000
734.605225	0.000000
734.643127	0.000000
734.681091	0.000000
734.718994	0.000000
734.756897	0.000000
734.794800	0.000000
734.832703	0.000000
734.870667	0.000000
734.908508	0.000000
734.946472	0.000000
734.984375	0.000000
735.022278	0.000000
735.060181	0.000000
735.098083	0.000000
735.135986	0.000000
735.173889	0.000000
735.211792	0.000000
735.249695	0.000000
735.287598	0.000000
735.325439	0.000000
735.363403	0.000000
735.401306	0.000000
735.439148	0.000000
735.477051	0.000000
735.515015	0.000000
735.552856	0.000000
735.590759	0.000000
735.628662	0.000000
735.666504	0.000000
735.704407	0.000000
735.742310	0.000000
735.780212	0.000000
735.818115	0.000000
735.856018	0.000000
735.893860	0.000000
735.931763	0.000000
735.969604	0.000000
736.007507	0.000000
736.045410	0.000000
736.083252	0.000000
736.121094	0.000000
736.158997	0.000000
736.196838	0.000000
736.234741	0.000000
736.272644	0.000000
736.310486	0.000000
736.348389	0.000000
736.386230	0.000000
736.424072	0.000000
736.461975	0.000000
736.499878	0.000000
736.537720	0.000000
736.575562	0.000000
736.613403	0.000000
736.651306	0.000000
736.689148	0.000000
736.726990	0.000000
736.764893	0.000000
736.802734	0.000000
736.840576	0.000000
736.878418	0.000000
736.916321	0.000000
736.954102	0.000000
736.992004	0.000000
737.029846	0.000000
737.067688	0.000000
737.105530	0.000000
737.143372	0.000000
737.181213	0.000000
737.219116	0.000000
737.256897	0.000000
737.294739	0.000000
737.332642	0.000000
737.370422	0.000000
737.408325	0.000000
737.446167	0.000000
737.483948	0.000000
737.521790	0.000000
737.559692	0.000000
737.597473	0.000000
737.635315	0.000000
737.673157	0.000000
737.710999	0.000000
737.748840	0.000000
737.786621	0.000000
737.824463	0.000000
737.862305	0.000000
737.900085	0.000000
737.937927	0.000000
737.975769	0.000000
738.013550	0.000000
738.051392	0.000000
738.089233	0.000000
738.127014	0.000000
738.164856	0.000000
738.202698	0.000000
738.240479	0.000000
738.278320	0.000000
738.316162	0.000000
738.353943	0.000000
738.391785	0.000000
738.429565	0.000000
738.467407	0.000000
738.505188	0.000000
738.542969	0.000000
738.580811	0.000000
738.618652	0.000000
738.656372	0.000000
738.694214	0.000000
738.732056	0.000000
738.769836	0.000000
738.807617	0.000000
738.845459	0.000000
738.883240	0.000000
738.921021	0.000000
738.958862	0.000000
738.996582	0.000000
739.034424	0.000000
739.072205	0.000000
739.109985	0.000000
739.147827	0.000000
739.185547	0.000000
739.223389	0.000000
739.261169	0.000000
739.298889	0.000000
739.336731	0.000000
739.374512	0.000000
739.412292	0.000000
739.450073	0.000000
739.487854	0.000000
739.525635	0.000000
739.563416	0.000000
739.601135	0.000000
739.638977	0.000000
739.676758	0.000000
739.714478	0.000000
739.752258	0.000000
739.790100	0.000000
739.827820	0.000000
739.865601	0.000000
739.903381	0.000000
739.941101	0.000000
739.978882	185.000000
740.016724	183.000000
740.054443	186.000000
740.092224	183.000000
740.130005	180.000000
740.167725	182.000000
740.205505	178.000000
740.243225	191.000000
740.281006	185.000000
740.318787	180.000000
740.356506	187.000000
740.394287	192.000000
740.432068	184.000000
740.469727	182.000000
740.507507	185.000000
740.545288	186.000000
740.583008	186.000000
740.620789	184.000000
740.658569	180.000000
740.696228	190.000000
740.734009	187.000000
740.771790	177.000000
740.809509	190.000000
740.847229	180.000000
740.884949	183.000000
740.922729	184.000000
740.960449	179.000000
740.998169	183.000000
741.035950	184.000000
741.073669	190.000000
741.111389	189.000000
741.149170	196.000000
741.186890	192.000000
741.224609	190.000000
741.262329	191.000000
741.300110	195.000000
741.337769	182.000000
741.375549	177.000000
741.413208	188.000000
741.450989	180.000000
741.488708	186.000000
741.526367	178.000000
741.564148	190.000000
741.601868	186.000000
741.639526	188.000000
741.677307	184.000000
741.715027	189.000000
741.752686	178.000000
741.790466	194.000000
741.828186	186.000000
741.865845	182.000000
741.903564	175.000000
741.941345	186.000000
741.979004	177.000000
742.016724	192.000000
742.054382	184.000000
742.092102	193.000000
742.129822	177.000000
742.167480	181.000000
742.205200	181.000000
742.242920	187.000000
742.280640	192.000000
742.318359	179.000000
742.356079	187.000000
742.393738	191.000000
742.431396	185.000000
742.469116	190.000000
742.506775	181.000000
742.544495	189.000000
742.582214	186.000000
742.619873	188.000000
742.657593	189.000000
742.695251	194.000000
742.732971	185.000000
742.770630	189.000000
742.808289	182.000000
742.846008	183.000000
742.883728	185.000000
742.921326	186.000000
742.959045	184.000000
742.996765	185.000000
743.034424	188.000000
743.072083	189.000000
743.109802	185.000000
743.147400	177.000000
743.185120	189.000000
743.222839	187.000000
743.260437	192.000000
743.298157	186.000000
743.335754	172.000000
743.373474	183.000000
743.411133	179.000000
743.448792	185.000000
743.486450	188.000000
743.524170	179.000000
743.561768	187.000000
743.599487	192.000000
743.637146	197.000000
743.674744	183.000000
743.712463	185.000000
743.750122	185.000000
743.787720	186.000000
743.825439	178.000000
743.863037	185.000000
743.900696	181.000000
743.938416	211.000000
743.976013	184.000000
744.013672	193.000000
744.051331	190.000000
744.088928	196.000000
744.126587	188.000000
744.164307	185.000000
744.201904	185.000000
744.239563	186.000000
744.277222	186.000000
744.314819	185.000000
744.352478	190.000000
744.390137	189.000000
744.427734	187.000000
744.465393	184.000000
744.502991	179.000000
744.540649	193.000000
744.578308	182.000000
744.615906	182.000000
744.653564	177.000000
744.691223	189.000000
744.728821	179.000000
744.766418	187.000000
744.804077	185.000000
744.841675	187.000000
744.879333	183.000000
744.916992	185.000000
744.954529	183.000000
744.992187	190.000000
745.029785	184.000000
745.067444	183.000000
745.105042	189.000000
745.142639	187.000000
745.180298	200.000000
745.217896	185.000000
745.255493	185.000000
745.293152	189.000000
745.330750	195.000000
745.368347	188.000000
745.405945	192.000000
745.443604	181.000000
745.481140	185.000000
745.518799	183.000000
745.556396	194.000000
745.593994	183.000000
745.631592	186.000000
745.669189	180.000000
745.706787	187.000000
745.744385	180.000000
745.781982	189.000000
745.819580	182.000000
745.857178	186.000000
745.894775	183.000000
745.932373	185.000000
745.969971	188.000000
746.007568	181.000000
746.045166	191.000000
746.082764	189.000000
746.120300	190.000000
746.157898	191.000000
746.195557	184.000000
746.233093	183.000000
746.270691	186.000000
746.308228	188.000000
746.345825	193.000000
746.383423	186.000000
746.420959	181.000000
746.458557	186.000000
746.496155	183.000000
746.533691	185.000000
746.571289	181.000000
746.608887	188.000000
746.646423	187.000000
746.684021	186.000000
746.721619	181.000000
746.759155	185.000000
746.796753	178.000000
746.834351	182.000000
746.871826	184.000000
746.909424	191.000000
746.946960	185.000000
746.984558	185.000000
747.022156	185.000000
747.059631	193.000000
747.097229	195.000000
747.134827	187.000000
747.172363	195.000000
747.209900	187.000000
747.247498	185.000000
747.285034	192.000000
747.322571	192.000000
747.360168	182.000000
747.397644	177.000000
747.435242	190.000000
747.472778	197.000000
747.510315	180.000000
747.547913	185.000000
747.585388	187.000000
747.622925	188.000000
747.660522	178.000000
747.697998	185.000000
747.735596	182.000000
747.773132	183.000000
747.810669	183.000000
747.848206	188.000000
747.885742	179.000000
747.923279	184.000000
747.960815	186.000000
747.998352	190.000000
748.035889	187.000000
748.073425	189.000000
748.110901	182.000000
748.148437	186.000000
748.185974	181.000000
748.223511	203.000000
748.261047	191.000000
748.298584	187.000000
748.336060	187.000000
748.373596	190.000000
748.411133	202.000000
748.448608	186.000000
748.486145	189.000000
748.523682	193.000000
748.561218	192.000000
748.598755	185.000000
748.636292	185.000000
748.673706	187.000000
748.711243	196.000000
748.748718	190.000000
748.786255	189.000000
748.823792	193.000000
748.861267	178.000000
748.898804	190.000000
748.936340	189.000000
748.973816	183.000000
749.011292	192.000000
749.048828	181.000000
749.086304	185.000000
749.123840	198.000000
749.161316	184.000000
749.198792	192.000000
749.236328	192.000000
749.273743	182.000000
749.311279	189.000000
749.348816	189.000000
749.386230	189.000000
749.423767	171.000000
749.461304	191.000000
749.498718	187.000000
749.536255	191.000000
749.573730	196.000000
749.611206	193.000000
749.648682	181.000000
749.686218	186.000000
749.723633	188.000000
749.761169	181.000000
749.798645	179.000000
749.836060	184.000000
749.873596	176.000000
749.911011	189.000000
749.948547	188.000000
749.986023	184.000000
750.023437	183.000000
750.060913	180.000000
750.098450	181.000000
750.135864	188.000000
750.173340	185.000000
750.210815	191.000000
750.248291	181.000000
750.285767	187.000000
750.323242	192.000000
750.360657	191.000000
750.398132	180.000000
750.435608	191.000000
750.473022	180.000000
750.510498	183.000000
750.547974	178.000000
750.585449	186.000000
750.622925	178.000000
750.660339	195.000000
750.697815	188.000000
750.735291	189.000000
750.772644	188.000000
750.810120	187.000000
750.847595	189.000000
750.885010	179.000000
750.922485	192.000000
750.959961	184.000000
750.997375	188.000000
751.034851	187.000000
751.072266	191.000000
751.109680	179.000000
751.147156	193.000000
751.184570	185.000000
751.221985	191.000000
751.259460	173.000000
751.296875	188.000000
751.334290	183.000000
751.371765	192.000000
751.409180	187.000000
751.446594	191.000000
751.484070	184.000000
751.521423	186.000000
751.558899	183.000000
751.596375	189.000000
751.633728	192.000000
751.671204	197.000000
751.708618	175.000000
751.746033	188.000000
751.783447	176.000000
751.820801	184.000000
751.858276	189.000000
751.895691	186.000000
751.933105	181.000000
751.970520	183.000000
752.007935	180.000000
752.045349	191.000000
752.082764	184.000000
752.120178	183.000000
752.157532	181.000000
752.195007	187.000000
752.232422	190.000000
752.269775	194.000000
752.307190	192.000000
752.344543	183.000000
752.382019	188.000000
752.419434	182.000000
752.456787	186.000000
752.494202	192.000000
752.531616	190.000000
752.568970	193.000000
752.606384	191.000000
752.643799	189.000000
752.681152	194.000000
752.718567	189.000000
752.755981	182.000000
752.793335	191.000000
752.830750	185.000000
752.868164	196.000000
752.905518	183.000000
752.942932	191.000000
752.980225	186.000000
753.017639	189.000000
753.055054	194.000000
753.092407	187.000000
753.129822	192.000000
753.167175	199.000000
753.204529	185.000000
753.241943	178.000000
753.279358	179.000000
753.316650	192.000000
753.354065	191.000000
753.391479	192.000000
753.428772	191.000000
753.466187	189.000000
753.503479	182.000000
753.540894	182.000000
753.578308	182.000000
753.615601	183.000000
753.653015	190.000000
753.690369	184.000000
753.727722	185.000000
753.765076	182.000000
753.802490	183.000000
753.839783	175.000000
753.877136	184.000000
753.914551	196.000000
753.951843	185.000000
753.989258	191.000000
754.026611	189.000000
754.063904	189.000000
754.101257	182.000000
754.138611	179.000000
754.175964	184.000000
754.213318	193.000000
754.250610	181.000000
754.288025	185.000000
754.325378	181.000000
754.362671	189.000000
754.400024	189.000000
754.437378	197.000000
754.474670	193.000000
754.512085	184.000000
754.549438	188.000000
754.586731	182.000000
754.624084	191.000000
754.661438	182.000000
754.698730	192.000000
754.736084	187.000000
754.773376	186.000000
754.810730	190.000000
754.848083	188.000000
754.885315	191.000000
754.922668	177.000000
754.960022	182.000000
754.997314	192.000000
755.034668	188.000000
755.072021	188.000000
755.109253	183.000000
755.146606	192.000000
755.183960	188.000000
755.221252	191.000000
755.258545	190.000000
755.295898	190.000000
755.333191	193.000000
755.370544	185.000000
755.407776	192.000000
755.445129	187.000000
755.482422	193.000000
755.519714	183.000000
755.557068	183.000000
755.594360	176.000000
755.631653	192.000000
755.668945	191.000000
755.706299	189.000000
755.743530	196.000000
755.780884	194.000000
755.818176	191.000000
755.855408	196.000000
755.892761	190.000000
755.930054	189.000000
755.967346	192.000000
756.004639	195.000000
756.041870	188.000000
756.079224	200.000000
756.116516	187.000000
756.153748	193.000000
756.191040	197.000000
756.228394	199.000000
756.265625	186.000000
756.302917	190.000000
756.340210	191.000000
756.377441	196.000000
756.414795	194.000000
756.452087	189.000000
756.489319	187.000000
756.526611	197.000000
756.563843	192.000000
756.601135	203.000000
756.638428	203.000000
756.675659	188.000000
756.712952	198.000000
756.750244	194.000000
756.787476	195.000000
756.824768	195.000000
756.862061	192.000000
756.899292	239.000000
756.936584	201.000000
756.973816	204.000000
757.011047	205.000000
757.048340	192.000000
757.085632	194.000000
757.122864	209.000000
757.160156	189.000000
757.197327	196.000000
757.234619	201.000000
757.271912	191.000000
757.309082	201.000000
757.346375	192.000000
757.383667	198.000000
757.420837	192.000000
757.458130	196.000000
757.495422	189.000000
757.532593	196.000000
757.569885	186.000000
757.607117	190.000000
757.644348	194.000000
757.681580	213.000000
757.718811	181.000000
757.756042	195.000000
757.793335	190.000000
757.830505	199.000000
757.867798	191.000000
757.905029	197.000000
757.942200	196.000000
757.979492	191.000000
758.016724	195.000000
758.053894	193.000000
758.091187	213.000000
758.128418	204.000000
758.165588	202.000000
758.202820	209.000000
758.240112	202.000000
758.277283	206.000000
758.314514	203.000000
758.351685	197.000000
758.388916	205.000000
758.426147	208.000000
758.463379	209.000000
758.500610	203.000000
758.537842	199.000000
758.575012	205.000000
758.612244	196.000000
758.649475	212.000000
758.686646	203.000000
758.723877	206.000000
758.761108	209.000000
758.798279	199.000000
758.835510	203.000000
758.872742	209.000000
758.909851	202.000000
758.947083	204.000000
758.984253	207.000000
759.021484	208.000000
759.058716	208.000000
759.095886	205.000000
759.133057	206.000000
759.170288	203.000000
759.207458	205.000000
759.244690	214.000000
759.281860	212.000000
759.319031	206.000000
759.356262	200.000000
759.393433	201.000000
759.430603	204.000000
759.467773	199.000000
759.505005	211.000000
759.542175	210.000000
759.579346	201.000000
759.616516	209.000000
759.653687	209.000000
759.690918	199.000000
759.728027	206.000000
759.765259	205.000000
759.802429	214.000000
759.839539	205.000000
759.876770	214.000000
759.913940	219.000000
759.951111	209.000000
759.988281	209.000000
760.025452	208.000000
760.062561	201.000000
760.099792	219.000000
760.136963	213.000000
760.174072	207.000000
760.211243	204.000000
760.248413	207.000000
760.285583	205.000000
760.322754	221.000000
760.359863	213.000000
760.397034	218.000000
760.434204	208.000000
760.471375	213.000000
760.508545	207.000000
760.545715	214.000000
760.582825	209.000000
760.619995	215.000000
760.657166	208.000000
760.694275	217.000000
760.731445	217.000000
760.768555	214.000000
760.805664	217.000000
760.842834	212.000000
760.879944	221.000000
760.917114	216.000000
760.954285	215.000000
760.991394	212.000000
761.028564	224.000000
761.065674	218.000000
761.102783	215.000000
761.139954	220.000000
761.177124	223.000000
761.214172	225.000000
761.251343	218.000000
761.288452	213.000000
761.325562	225.000000
761.362732	216.000000
761.399841	221.000000
761.436951	222.000000
761.474121	219.000000
761.511169	218.000000
761.548340	226.000000
761.585449	224.000000
761.622559	224.000000
761.659668	226.000000
761.696838	230.000000
761.733887	220.000000
761.771057	225.000000
761.808167	226.000000
761.845276	232.000000
761.882385	239.000000
761.919434	229.000000
761.956604	243.000000
761.993713	230.000000
762.030762	234.000000
762.067871	226.000000
762.105042	232.000000
762.142090	237.000000
762.179199	226.000000
762.216309	237.000000
762.253418	244.000000
762.290527	240.000000
762.327637	240.000000
762.364685	230.000000
762.401794	235.000000
762.438904	239.000000
762.475952	237.000000
762.513062	232.000000
762.550110	235.000000
762.587219	240.000000
762.624329	240.000000
762.661377	237.000000
762.698486	242.000000
762.735596	234.000000
762.772644	232.000000
762.809753	231.000000
762.846863	241.000000
762.883911	242.000000
762.921021	242.000000
762.958069	239.000000
762.995117	247.000000
763.032227	244.000000
763.069336	238.000000
763.106323	237.000000
763.143433	240.000000
763.180481	240.000000
763.217590	247.000000
763.254639	235.000000
763.291687	238.000000
763.328735	246.000000
763.365845	243.000000
763.402893	240.000000
763.439941	248.000000
763.477051	250.000000
763.514038	249.000000
763.551147	245.000000
763.588196	250.000000
763.625244	249.000000
763.662292	252.000000
763.699402	256.000000
763.736389	245.000000
763.773499	256.000000
763.810486	249.000000
763.847534	247.000000
763.884644	257.000000
763.921631	254.000000
763.958679	262.000000
763.995728	259.000000
764.032776	267.000000
764.069824	255.000000
764.106873	262.000000
764.143860	269.000000
764.180969	258.000000
764.218018	259.000000
764.255005	260.000000
764.292053	259.000000
764.329102	273.000000
764.366089	271.000000
764.403137	268.000000
764.440125	261.000000
764.477173	264.000000
764.514221	266.000000
764.551208	262.000000
764.588257	261.000000
764.625305	265.000000
764.662292	268.000000
764.699341	278.000000
764.736389	267.000000
764.773376	283.000000
764.810425	273.000000
764.847473	272.000000
764.884399	272.000000
764.921448	281.000000
764.958435	283.000000
764.995483	269.000000
765.032532	286.000000
765.069458	272.000000
765.106506	271.000000
765.143555	267.000000
765.180481	273.000000
765.217529	277.000000
765.254578	267.000000
765.291504	276.000000
765.328552	275.000000
765.365540	274.000000
765.402527	296.000000
765.439575	279.000000
765.476501	281.000000
765.513550	273.000000
765.550537	289.000000
765.587463	293.000000
765.624512	275.000000
765.661499	270.000000
765.698486	290.000000
765.735474	280.000000
765.772461	284.000000
765.809448	285.000000
765.846436	293.000000
765.883423	295.000000
765.920410	286.000000
765.957397	291.000000
765.994385	291.000000
766.031311	306.000000
766.068359	295.000000
766.105286	297.000000
766.142273	299.000000
766.179260	294.000000
766.216187	290.000000
766.253174	284.000000
766.290161	293.000000
766.327148	299.000000
766.364136	292.000000
766.401123	312.000000
766.438049	295.000000
766.475037	318.000000
766.512024	303.000000
766.548950	319.000000
766.585937	313.000000
766.622864	310.000000
766.659790	314.000000
766.696777	305.000000
766.733704	318.000000
766.770691	314.000000
766.807678	319.000000
766.844604	323.000000
766.881531	322.000000
766.918518	331.000000
766.955444	324.000000
766.992432	321.000000
767.029358	322.000000
767.066284	322.000000
767.103271	329.000000
767.140198	367.000000
767.177124	344.000000
767.214050	328.000000
767.251038	334.000000
767.287964	330.000000
767.324890	326.000000
767.361816	339.000000
767.398743	335.000000
767.435730	334.000000
767.472595	347.000000
767.509583	347.000000
767.546509	340.000000
767.583374	352.000000
767.620361	334.000000
767.657288	349.000000
767.694214	349.000000
767.731140	350.000000
767.768066	350.000000
767.804993	359.000000
767.841919	336.000000
767.878845	345.000000
767.915710	357.000000
767.952698	343.000000
767.989563	362.000000
768.026489	366.000000
768.063416	349.000000
768.100281	357.000000
768.137207	362.000000
768.174133	367.000000
768.211060	368.000000
768.247986	373.000000
768.284912	365.000000
768.321777	365.000000
768.358704	359.000000
768.395630	360.000000
768.432495	361.000000
768.469421	365.000000
768.506348	374.000000
768.543152	369.000000
768.580078	376.000000
768.616943	376.000000
768.653870	384.000000
768.690796	382.000000
768.727661	375.000000
768.764587	379.000000
768.801453	364.000000
768.838318	380.000000
768.875244	381.000000
768.912109	393.000000
768.948975	390.000000
768.985901	387.000000
769.022766	383.000000
769.059631	387.000000
769.096558	390.000000
769.133362	396.000000
769.170288	395.000000
769.207214	390.000000
769.244019	397.000000
769.280945	394.000000
769.317810	407.000000
769.354675	405.000000
769.391541	416.000000
769.428406	412.000000
769.465271	423.000000
769.502136	405.000000
769.539062	412.000000
769.575867	410.000000
769.612732	417.000000
769.649597	423.000000
769.686462	423.000000
769.723328	413.000000
769.760193	415.000000
769.797058	415.000000
769.833923	430.000000
769.870728	424.000000
769.907593	423.000000
769.944519	421.000000
769.981323	428.000000
770.018188	441.000000
770.055054	432.000000
770.091858	430.000000
770.128723	444.000000
770.165588	447.000000
770.202393	428.000000
770.239258	443.000000
770.276062	433.000000
770.312927	445.000000
770.349792	441.000000
770.386597	445.000000
770.423462	446.000000
770.460327	471.000000
770.497131	438.000000
770.533997	442.000000
770.570862	451.000000
770.607605	457.000000
770.644470	447.000000
770.681335	451.000000
770.718140	449.000000
770.754944	449.000000
770.791809	446.000000
770.828613	457.000000
770.865479	450.000000
770.902222	462.000000
770.939087	455.000000
770.975952	451.000000
771.012695	454.000000
771.049561	472.000000
771.086365	456.000000
771.123169	453.000000
771.159973	458.000000
771.196838	467.000000
771.233582	469.000000
771.270447	476.000000
771.307251	472.000000
771.344055	467.000000
771.380859	463.000000
771.417664	474.000000
771.454468	461.000000
771.491272	477.000000
771.528076	472.000000
771.564880	480.000000
771.601685	481.000000
771.638428	477.000000
771.675293	479.000000
771.712097	477.000000
771.748840	490.000000
771.785645	484.000000
771.822449	487.000000
771.859253	492.000000
771.896057	493.000000
771.932861	512.000000
771.969604	504.000000
772.006409	493.000000
772.043213	503.000000
772.079956	506.000000
772.116760	506.000000
772.153503	512.000000
772.190308	522.000000
772.227112	504.000000
772.263855	507.000000
772.300659	508.000000
772.337463	515.000000
772.374207	518.000000
772.411011	513.000000
772.447754	511.000000
772.484497	532.000000
772.521301	512.000000
772.558105	517.000000
772.594849	526.000000
772.631592	542.000000
772.668396	537.000000
772.705139	543.000000
772.741882	542.000000
772.778625	545.000000
772.815430	544.000000
772.852173	545.000000
772.888916	563.000000
772.925720	565.000000
772.962463	571.000000
772.999207	565.000000
773.035950	571.000000
773.072754	573.000000
773.109436	570.000000
773.146240	568.000000
773.182922	563.000000
773.219727	573.000000
773.256470	566.000000
773.293152	567.000000
773.329956	580.000000
773.366699	585.000000
773.403381	569.000000
773.440186	579.000000
773.476929	575.000000
773.513611	589.000000
773.550354	595.000000
773.587158	593.000000
773.623840	580.000000
773.660583	590.000000
773.697327	596.000000
773.734009	595.000000
773.770813	596.000000
773.807495	600.000000
773.844238	613.000000
773.880981	612.000000
773.917664	599.000000
773.954407	616.000000
773.991150	610.000000
774.027832	623.000000
774.064575	621.000000
774.101318	608.000000
774.138000	625.000000
774.174744	617.000000
774.211487	633.000000
774.248108	632.000000
774.284851	633.000000
774.321594	627.000000
774.358276	633.000000
774.395020	641.000000
774.431702	647.000000
774.468384	638.000000
774.505127	646.000000
774.541809	649.000000
774.578491	651.000000
774.615234	639.000000
774.651917	647.000000
774.688599	643.000000
774.725342	679.000000
774.762024	659.000000
774.798706	650.000000
774.835449	649.000000
774.872070	664.000000
774.908813	672.000000
774.945496	688.000000
774.982178	674.000000
775.018860	672.000000
775.055542	668.000000
775.092224	670.000000
775.128967	688.000000
775.165588	702.000000
775.202271	694.000000
775.239014	693.000000
775.275635	687.000000
775.312317	696.000000
775.349060	699.000000
775.385681	723.000000
775.422363	707.000000
775.459045	709.000000
775.495667	688.000000
775.532410	692.000000
775.569092	707.000000
775.605713	726.000000
775.642395	728.000000
775.679016	715.000000
775.715698	707.000000
775.752380	712.000000
775.789001	698.000000
775.825684	701.000000
775.862366	724.000000
775.898987	727.000000
775.935669	713.000000
775.972351	717.000000
776.008972	721.000000
776.045654	733.000000
776.082336	737.000000
776.118958	726.000000
776.155640	745.000000
776.192322	733.000000
776.228882	725.000000
776.265564	732.000000
776.302185	735.000000
776.338867	751.000000
776.375488	739.000000
776.412109	742.000000
776.448792	753.000000
776.485413	750.000000
776.522034	748.000000
776.558716	736.000000
776.595337	751.000000
776.631958	738.000000
776.668579	737.000000
776.705261	724.000000
776.741882	745.000000
776.778503	743.000000
776.815186	751.000000
776.851746	748.000000
776.888367	744.000000
776.924988	748.000000
776.961609	743.000000
776.998291	749.000000
777.034851	750.000000
777.071472	767.000000
777.108154	759.000000
777.144714	758.000000
777.181335	768.000000
777.218018	756.000000
777.254578	774.000000
777.291199	786.000000
777.327759	779.000000
777.364380	773.000000
777.401062	804.000000
777.437622	807.000000
777.474243	808.000000
777.510864	815.000000
777.547424	810.000000
777.584045	833.000000
777.620667	835.000000
777.657227	820.000000
777.693848	839.000000
777.730469	847.000000
777.767029	843.000000
777.803650	839.000000
777.840271	831.000000
777.876831	840.000000
777.913452	845.000000
777.950012	819.000000
777.986633	822.000000
778.023193	834.000000
778.059753	832.000000
778.096375	826.000000
778.132996	834.000000
778.169556	829.000000
778.206116	824.000000
778.242737	833.000000
778.279297	848.000000
778.315857	840.000000
778.352478	854.000000
778.389038	863.000000
778.425598	867.000000
778.462219	888.000000
778.498718	865.000000
778.535339	878.000000
778.571838	882.000000
778.608459	885.000000
778.645020	874.000000
778.681580	889.000000
778.718140	901.000000
778.754761	890.000000
778.791260	875.000000
778.827881	886.000000
778.864441	871.000000
778.900940	892.000000
778.937561	895.000000
778.974121	891.000000
779.010620	888.000000
779.047241	909.000000
779.083801	913.000000
779.120300	926.000000
779.156860	935.000000
779.193359	935.000000
779.229980	939.000000
779.266541	953.000000
779.303040	952.000000
779.339600	941.000000
779.376160	939.000000
779.412659	953.000000
779.449219	963.000000
779.485779	965.000000
779.522278	962.000000
779.558838	947.000000
779.595398	955.000000
779.631897	956.000000
779.668457	963.000000
779.705017	971.000000
779.741516	953.000000
779.778076	937.000000
779.814575	948.000000
779.851074	955.000000
779.887634	967.000000
779.924133	971.000000
779.960693	946.000000
779.997253	956.000000
780.033691	949.000000
780.070251	956.000000
780.106812	980.000000
780.143250	996.000000
780.179810	987.000000
780.216370	980.000000
780.252808	994.000000
780.289368	999.000000
780.325867	1007.000000
780.362366	1001.000000
780.398865	1027.000000
780.435364	1034.000000
780.471863	1047.000000
780.508423	1016.000000
780.544861	1028.000000
780.581421	1048.000000
780.617920	1036.000000
780.654419	1051.000000
780.690918	1037.000000
780.727417	1027.000000
780.763916	1029.000000
780.800415	1037.000000
780.836914	1037.000000
780.873352	1053.000000
780.909912	1052.000000
780.946411	1040.000000
780.982849	1049.000000
781.019348	1065.000000
781.055786	1046.000000
781.092346	1048.000000
781.128845	1064.000000
781.165283	1053.000000
781.201782	1073.000000
781.238281	1054.000000
781.274719	1066.000000
781.311218	1085.000000
781.347717	1100.000000
781.384155	1081.000000
781.420654	1073.000000
781.457092	1097.000000
781.493591	1095.000000
781.530090	1080.000000
781.566528	1089.000000
781.602966	1085.000000
781.639465	1069.000000
781.675903	1041.000000
781.712402	1025.000000
781.748901	1013.000000
781.785278	986.000000
781.821777	955.000000
781.858276	917.000000
781.894714	896.000000
781.931152	838.000000
781.967651	827.000000
782.004089	787.000000
782.040527	769.000000
782.076965	739.000000
782.113403	711.000000
782.149902	684.000000
782.186340	657.000000
782.222778	632.000000
782.259277	598.000000
782.295654	573.000000
782.332092	554.000000
782.368591	519.000000
782.404968	504.000000
782.441467	501.000000
782.477905	471.000000
782.514282	456.000000
782.550781	462.000000
782.587219	451.000000
782.623596	466.000000
782.660095	486.000000
782.696472	521.000000
782.732910	564.000000
782.769348	601.000000
782.805786	675.000000
782.842224	728.000000
782.878662	792.000000
782.915039	870.000000
782.951477	928.000000
782.987915	962.000000
783.024292	1030.000000
783.060730	1058.000000
783.097168	1075.000000
783.133545	1086.000000
783.169983	1115.000000
783.206421	1111.000000
783.242798	1119.000000
783.279236	1106.000000
783.315613	1118.000000
783.352051	1112.000000
783.388489	1103.000000
783.424866	1097.000000
783.461304	1115.000000
783.497681	1122.000000
783.534058	1140.000000
783.570496	1131.000000
783.606934	1148.000000
783.643250	1157.000000
783.679687	1165.000000
783.716125	1144.000000
783.752441	1164.000000
783.788879	1176.000000
783.825317	1200.000000
783.861633	1193.000000
783.898071	1188.000000
783.934448	1222.000000
783.970825	1222.000000
784.007263	1215.000000
784.043579	1233.000000
784.080017	1258.000000
784.116394	1238.000000
784.152710	1221.000000
784.189148	1207.000000
784.225525	1226.000000
784.261902	1224.000000
784.298279	1225.000000
784.334656	1217.000000
784.371033	1199.000000
784.407410	1189.000000
784.443787	1176.000000
784.480164	1181.000000
784.516541	1175.000000
784.552856	1196.000000
784.589233	1173.000000
784.625610	1170.000000
784.661987	1193.000000
784.698364	1197.000000
784.734741	1206.000000
784.771057	1233.000000
784.807434	1221.000000
784.843811	1227.000000
784.880127	1197.000000
784.916504	1245.000000
784.952881	1255.000000
784.989197	1267.000000
785.025574	1294.000000
785.061951	1293.000000
785.098267	1311.000000
785.134644	1311.000000
785.170959	1340.000000
785.207275	1364.000000
785.243652	1398.000000
785.279968	1371.000000
785.316345	1350.000000
785.352722	1321.000000
785.388977	1321.000000
785.425354	1311.000000
785.461731	1307.000000
785.498047	1291.000000
785.534363	1281.000000
785.570679	1221.000000
785.606995	1188.000000
785.643372	1179.000000
785.679687	1200.000000
785.716003	1177.000000
785.752380	1165.000000
785.788635	1152.000000
785.825012	1143.000000
785.861328	1154.000000
785.897644	1172.000000
785.933960	1229.000000
785.970337	1240.000000
786.006592	1265.000000
786.042908	1258.000000
786.079285	1278.000000
786.115540	1336.000000
786.151855	1355.000000
786.188171	1410.000000
786.224487	1452.000000
786.260803	1472.000000
786.297119	1482.000000
786.333435	1478.000000
786.369751	1504.000000
786.406006	1505.000000
786.442322	1481.000000
786.478638	1447.000000
786.514954	1433.000000
786.551270	1391.000000
786.587585	1362.000000
786.623840	1323.000000
786.660156	1308.000000
786.696472	1283.000000
786.732727	1242.000000
786.769043	1221.000000
786.805298	1180.000000
786.841614	1184.000000
786.877930	1221.000000
786.914124	1219.000000
786.950439	1252.000000
786.986755	1250.000000
787.023010	1244.000000
787.059326	1252.000000
787.095642	1275.000000
787.131836	1341.000000
787.168152	1338.000000
787.204468	1375.000000
787.240723	1394.000000
787.276978	1403.000000
787.313293	1418.000000
787.349548	1441.000000
787.385803	1486.000000
787.422058	1484.000000
787.458313	1496.000000
787.494629	1449.000000
787.530823	1447.000000
787.567139	1442.000000
787.603455	1438.000000
787.639648	1412.000000
787.675903	1433.000000
787.712219	1371.000000
787.748413	1356.000000
787.784729	1335.000000
787.820984	1320.000000
787.857178	1310.000000
787.893494	1324.000000
787.929749	1312.000000
787.965942	1295.000000
788.002258	1299.000000
788.038452	1301.000000
788.074707	1312.000000
788.110962	1340.000000
788.147217	1328.000000
788.183472	1341.000000
788.219727	1318.000000
788.255920	1305.000000
788.292175	1326.000000
788.328430	1340.000000
788.364624	1333.000000
788.400879	1345.000000
788.437134	1344.000000
788.473328	1341.000000
788.509583	1338.000000
788.545837	1340.000000
788.582031	1352.000000
788.618286	1363.000000
788.654480	1365.000000
788.690735	1369.000000
788.726990	1394.000000
788.763184	1392.000000
788.799377	1408.000000
788.835632	1424.000000
788.871826	1443.000000
788.908081	1424.000000
788.944336	1417.000000
788.980469	1441.000000
789.016724	1415.000000
789.052979	1418.000000
789.089111	1401.000000
789.125366	1401.000000
789.161621	1391.000000
789.197754	1363.000000
789.234009	1342.000000
789.270142	1335.000000
789.306396	1352.000000
789.342590	1338.000000
789.378784	1328.000000
789.414978	1312.000000
789.451233	1301.000000
789.487366	1295.000000
789.523621	1316.000000
789.559814	1321.000000
789.595947	1339.000000
789.632202	1332.000000
789.668335	1334.000000
789.704529	1341.000000
789.740784	1366.000000
789.776917	1372.000000
789.813110	1405.000000
789.849304	1432.000000
789.885498	1419.000000
789.921692	1391.000000
789.957886	1396.000000
789.994019	1393.000000
790.030212	1412.000000
790.066406	1440.000000
790.102539	1445.000000
790.138733	1433.000000
790.174927	1396.000000
790.211060	1398.000000
790.247253	1382.000000
790.283386	1418.000000
790.319580	1409.000000
790.355774	1391.000000
790.391907	1312.000000
790.428101	1205.000000
790.464294	1066.000000
790.500427	901.000000
790.536621	753.000000
790.572754	631.000000
790.608887	573.000000
790.645081	610.000000
790.681274	780.000000
790.717346	1002.000000
790.753540	1209.000000
790.789734	1364.000000
790.825867	1405.000000
790.862000	1424.000000
790.898132	1401.000000
790.934265	1392.000000
790.970459	1384.000000
791.006592	1412.000000
791.042725	1418.000000
791.078918	1397.000000
791.114990	1362.000000
791.151184	1338.000000
791.187317	1333.000000
791.223389	1362.000000
791.259583	1360.000000
791.295715	1393.000000
791.331848	1393.000000
791.367981	1395.000000
791.404114	1378.000000
791.440247	1402.000000
791.476379	1424.000000
791.512451	1455.000000
791.548584	1473.000000
791.584778	1465.000000
791.620850	1465.000000
791.656982	1443.000000
791.693115	1445.000000
791.729187	1461.000000
791.765381	1495.000000
791.801514	1499.000000
791.837585	1481.000000
791.873718	1457.000000
791.909851	1465.000000
791.945923	1477.000000
791.982056	1494.000000
792.018188	1512.000000
792.054260	1522.000000
792.090393	1519.000000
792.126465	1496.000000
792.162598	1485.000000
792.198669	1500.000000
792.234741	1511.000000
792.270874	1519.000000
792.307007	1503.000000
792.343079	1474.000000
792.379150	1466.000000
792.415283	1448.000000
792.451355	1456.000000
792.487488	1458.000000
792.523560	1467.000000
792.559631	1463.000000
792.595764	1427.000000
792.631836	1418.000000
792.667908	1436.000000
792.703979	1420.000000
792.740051	1445.000000
792.776184	1446.000000
792.812256	1434.000000
792.848328	1425.000000
792.884399	1415.000000
792.920471	1412.000000
792.956543	1456.000000
792.992615	1463.000000
793.028748	1461.000000
793.064758	1457.000000
793.100830	1469.000000
793.136963	1455.000000
793.172974	1458.000000
793.209045	1455.000000
793.245178	1469.000000
793.281189	1461.000000
793.317261	1452.000000
793.353271	1431.000000
793.389404	1438.000000
793.425476	1454.000000
793.461487	1452.000000
793.497559	1457.000000
793.533630	1463.000000
793.569641	1441.000000
793.605713	1409.000000
793.641785	1398.000000
793.677795	1417.000000
793.713867	1426.000000
793.749878	1435.000000
793.785950	1440.000000
793.822021	1452.000000
793.858032	1420.000000
793.894104	1422.000000
793.930176	1446.000000
793.966187	1455.000000
794.002258	1463.000000
794.038269	1467.000000
794.074280	1435.000000
794.110352	1433.000000
794.146423	1442.000000
794.182373	1438.000000
794.218445	1454.000000
794.254517	1473.000000
794.290466	1442.000000
794.326538	1433.000000
794.362549	1421.000000
794.398560	1415.000000
794.434631	1399.000000
794.470581	1388.000000
794.506653	1373.000000
794.542664	1359.000000
794.578674	1329.000000
794.614685	1334.000000
794.650757	1327.000000
794.686707	1351.000000
794.722778	1365.000000
794.758789	1360.000000
794.794739	1374.000000
794.830811	1378.000000
794.866821	1373.000000
794.902771	1379.000000
794.938843	1386.000000
794.974792	1408.000000
795.010803	1410.000000
795.046814	1411.000000
795.082825	1383.000000
795.118835	1389.000000
795.154846	1371.000000
795.190796	1385.000000
795.226807	1383.000000
795.262817	1386.000000
795.298767	1350.000000
795.334778	1329.000000
795.370850	1337.000000
795.406799	1331.000000
795.442810	1318.000000
795.478821	1331.000000
795.514709	1320.000000
795.550720	1334.000000
795.586670	1289.000000
795.622681	1280.000000
795.658691	1277.000000
795.694641	1306.000000
795.730652	1298.000000
795.766663	1299.000000
795.802551	1297.000000
795.838562	1301.000000
795.874573	1293.000000
795.910522	1304.000000
795.946472	1304.000000
795.982483	1319.000000
796.018433	1277.000000
796.054382	1273.000000
796.090393	1277.000000
796.126282	1265.000000
796.162292	1292.000000
796.198242	1307.000000
796.234192	1312.000000
796.270203	1297.000000
796.306091	1291.000000
796.342041	1304.000000
796.378052	1291.000000
796.413940	1303.000000
796.449951	1315.000000
796.485901	1289.000000
796.521790	1272.000000
796.557800	1279.000000
796.593689	1285.000000
796.629639	1279.000000
796.665649	1302.000000
796.701599	1313.000000
796.737488	1302.000000
796.773437	1303.000000
796.809387	1286.000000
796.845337	1295.000000
796.881287	1323.000000
796.917175	1324.000000
796.953125	1339.000000
796.989075	1326.000000
797.024963	1304.000000
797.060913	1304.000000
797.096863	1306.000000
797.132751	1306.000000
797.168701	1304.000000
797.204590	1280.000000
797.240540	1245.000000
797.276489	1247.000000
797.312439	1243.000000
797.348328	1251.000000
797.384277	1254.000000
797.420166	1269.000000
797.456055	1266.000000
797.492004	1250.000000
797.527893	1241.000000
797.563843	1232.000000
797.599731	1241.000000
797.635620	1247.000000
797.671570	1274.000000
797.707520	1261.000000
797.743347	1245.000000
797.779297	1235.000000
797.815125	1247.000000
797.851074	1265.000000
797.887024	1289.000000
797.922913	1294.000000
797.958801	1277.000000
797.994690	1246.000000
798.030579	1241.000000
798.066467	1245.000000
798.102356	1263.000000
798.138245	1272.000000
798.174133	1263.000000
798.210083	1251.000000
798.245911	1236.000000
798.281799	1244.000000
798.317749	1239.000000
798.353577	1253.000000
798.389465	1249.000000
798.425293	1252.000000
798.461243	1221.000000
798.497131	1211.000000
798.532959	1213.000000
798.568848	1240.000000
798.604736	1243.000000
798.640564	1231.000000
798.676453	1231.000000
798.712402	1216.000000
798.748230	1193.000000
798.784119	1212.000000
798.820007	1228.000000
798.855835	1239.000000
798.891724	1242.000000
798.927551	1217.000000
798.963379	1214.000000
798.999268	1212.000000
799.035095	1207.000000
799.070984	1225.000000
799.106873	1212.000000
799.142700	1238.000000
799.178528	1189.000000
799.214417	1195.000000
799.250244	1204.000000
799.286133	1201.000000
799.321960	1228.000000
799.357788	1229.000000
799.393677	1203.000000
799.429504	1203.000000
799.465332	1197.000000
799.501221	1199.000000
799.537048	1207.000000
799.572876	1205.000000
799.608704	1193.000000
799.644531	1198.000000
799.680359	1189.000000
799.716248	1185.000000
799.752014	1212.000000
799.787903	1187.000000
799.823730	1209.000000
799.859558	1207.000000
799.895386	1193.000000
799.931213	1162.000000
799.967041	1147.000000
800.002869	1157.000000
800.038696	1177.000000
800.074463	1164.000000
800.110352	1171.000000
800.146179	1137.000000
800.181946	1155.000000
800.217773	1151.000000
800.253540	1139.000000
800.289429	1166.000000
800.325256	1150.000000
800.361023	1149.000000
800.396851	1148.000000
800.432678	1112.000000
800.468445	1118.000000
800.504272	1119.000000
800.540100	1135.000000
800.575867	1136.000000
800.611694	1122.000000
800.647461	1105.000000
800.683289	1091.000000
800.719116	1094.000000
800.754883	1112.000000
800.790649	1076.000000
800.826477	1084.000000
800.862244	1087.000000
800.898071	1058.000000
800.933838	1054.000000
800.969604	1062.000000
801.005432	1088.000000
801.041199	1094.000000
801.076965	1072.000000
801.112793	1049.000000
801.148560	1023.000000
801.184326	1032.000000
801.220154	1019.000000
801.255859	1033.000000
801.291687	1034.000000
801.327454	1021.000000
801.363281	1021.000000
801.398987	1011.000000
801.434814	993.000000
801.470520	1012.000000
801.506287	1007.000000
801.542114	1012.000000
801.577820	986.000000
801.613647	978.000000
801.649414	975.000000
801.685120	993.000000
801.720886	1002.000000
801.756714	1003.000000
801.792419	991.000000
801.828186	993.000000
801.863892	982.000000
801.899719	973.000000
801.935486	971.000000
801.971252	996.000000
802.006958	977.000000
802.042725	976.000000
802.078430	964.000000
802.114197	957.000000
802.149963	981.000000
802.185669	960.000000
802.221436	983.000000
802.257202	968.000000
802.292908	968.000000
802.328674	967.000000
802.364441	962.000000
802.400146	936.000000
802.435913	949.000000
802.471558	953.000000
802.507324	950.000000
802.543091	938.000000
802.578796	955.000000
802.614502	947.000000
802.650269	973.000000
802.685974	952.000000
802.721741	967.000000
802.757446	966.000000
802.793152	951.000000
802.828918	940.000000
802.864624	945.000000
802.900330	954.000000
802.936035	946.000000
802.971802	942.000000
803.007446	947.000000
803.043213	928.000000
803.078857	929.000000
803.114624	908.000000
803.150330	914.000000
803.185974	895.000000
803.221741	900.000000
803.257446	902.000000
803.293152	906.000000
803.328857	902.000000
803.364563	885.000000
803.400208	884.000000
803.435974	903.000000
803.471680	899.000000
803.507324	876.000000
803.543030	888.000000
803.578735	877.000000
803.614441	872.000000
803.650146	897.000000
803.685791	871.000000
803.721497	886.000000
803.757202	870.000000
803.792847	857.000000
803.828552	856.000000
803.864258	845.000000
803.899902	840.000000
803.935608	842.000000
803.971313	849.000000
804.006958	835.000000
804.042664	831.000000
804.078308	835.000000
804.113953	821.000000
804.149658	844.000000
804.185364	835.000000
804.221008	848.000000
804.256714	842.000000
804.292297	820.000000
804.328003	807.000000
804.363708	807.000000
804.399292	804.000000
804.434998	806.000000
804.470703	800.000000
804.506287	810.000000
804.541992	800.000000
804.577637	806.000000
804.613281	796.000000
804.648926	793.000000
804.684570	797.000000
804.720215	785.000000
804.755920	779.000000
804.791565	771.000000
804.827209	785.000000
804.862854	775.000000
804.898437	778.000000
804.934143	780.000000
804.969788	783.000000
805.005371	780.000000
805.041077	787.000000
805.076721	775.000000
805.112305	776.000000
805.147949	772.000000
805.183655	777.000000
805.219238	763.000000
805.254883	764.000000
805.290466	773.000000
805.326111	775.000000
805.361755	757.000000
805.397400	770.000000
805.432983	776.000000
805.468628	771.000000
805.504211	762.000000
805.539856	749.000000
805.575500	768.000000
805.611084	755.000000
805.646729	756.000000
805.682373	750.000000
805.717957	759.000000
805.753601	754.000000
805.789246	747.000000
805.824768	754.000000
805.860413	770.000000
805.895996	748.000000
805.931641	743.000000
805.967224	747.000000
806.002869	733.000000
806.038452	739.000000
806.074036	745.000000
806.109619	735.000000
806.145264	734.000000
806.180847	738.000000
806.216431	731.000000
806.252014	721.000000
806.287659	733.000000
806.323181	735.000000
806.358826	718.000000
806.394409	705.000000
806.429993	717.000000
806.465576	713.000000
806.501160	704.000000
806.536743	694.000000
806.572327	699.000000
806.607910	717.000000
806.643494	716.000000
806.679077	695.000000
806.714661	701.000000
806.750244	683.000000
806.785828	683.000000
806.821350	678.000000
806.856934	683.000000
806.892517	677.000000
806.928101	679.000000
806.963684	670.000000
806.999268	686.000000
807.034790	662.000000
807.070374	667.000000
807.105896	658.000000
807.141479	670.000000
807.177063	667.000000
807.212585	659.000000
807.248169	660.000000
807.283752	654.000000
807.319275	652.000000
807.354858	659.000000
807.390381	657.000000
807.425903	650.000000
807.461487	652.000000
807.497070	636.000000
807.532593	636.000000
807.568115	636.000000
807.603699	636.000000
807.639221	630.000000
807.674744	632.000000
807.710266	627.000000
807.745850	638.000000
807.781372	623.000000
807.816895	626.000000
807.852417	642.000000
807.888000	624.000000
807.923523	620.000000
807.959045	623.000000
807.994629	608.000000
808.030090	614.000000
808.065613	611.000000
808.101135	620.000000
808.136658	608.000000
808.172241	606.000000
808.207764	607.000000
808.243225	608.000000
808.278809	601.000000
808.314270	618.000000
808.349792	592.000000
808.385315	585.000000
808.420837	593.000000
808.456360	595.000000
808.491882	593.000000
808.527344	598.000000
808.562866	606.000000
808.598389	600.000000
808.633850	593.000000
808.669434	583.000000
808.704895	586.000000
808.740417	589.000000
808.775940	587.000000
808.811462	576.000000
808.846924	563.000000
808.882385	562.000000
808.917847	565.000000
808.953369	562.000000
808.988892	562.000000
809.024353	570.000000
809.059875	571.000000
809.095398	568.000000
809.130798	552.000000
809.166321	558.000000
809.201843	557.000000
809.237305	553.000000
809.272766	569.000000
809.308228	544.000000
809.343750	534.000000
809.379211	548.000000
809.414734	550.000000
809.450134	549.000000
809.485657	531.000000
809.521118	549.000000
809.556580	531.000000
809.592102	535.000000
809.627502	532.000000
809.663025	524.000000
809.698486	525.000000
809.733887	530.000000
809.769409	517.000000
809.804871	503.000000
809.840271	514.000000
809.875793	520.000000
809.911194	524.000000
809.946655	508.000000
809.982178	507.000000
810.017639	513.000000
810.053040	503.000000
810.088501	497.000000
810.123901	505.000000
810.159424	502.000000
810.194885	505.000000
810.230286	497.000000
810.265747	505.000000
810.301208	492.000000
810.336609	502.000000
810.372070	484.000000
810.407532	484.000000
810.442932	491.000000
810.478394	493.000000
810.513794	486.000000
810.549255	496.000000
810.584717	489.000000
810.620117	479.000000
810.655518	481.000000
810.690979	485.000000
810.726379	483.000000
810.761841	474.000000
810.797302	471.000000
810.832642	478.000000
810.868103	483.000000
810.903564	472.000000
810.938904	467.000000
810.974365	463.000000
811.009827	475.000000
811.045166	466.000000
811.080627	460.000000
811.115967	465.000000
811.151428	469.000000
811.186829	467.000000
811.222229	458.000000
811.257629	447.000000
811.293091	453.000000
811.328430	465.000000
811.363892	456.000000
811.399292	457.000000
811.434631	446.000000
811.470093	455.000000
811.505493	452.000000
811.540833	451.000000
811.576294	447.000000
811.611694	442.000000
811.647034	444.000000
811.682434	439.000000
811.717773	448.000000
811.753235	454.000000
811.788635	446.000000
811.823975	446.000000
811.859375	452.000000
811.894775	428.000000
811.930115	447.000000
811.965515	439.000000
812.000916	442.000000
812.036255	432.000000
812.071655	435.000000
812.106995	425.000000
812.142395	432.000000
812.177795	437.000000
812.213196	439.000000
812.248474	431.000000
812.283875	426.000000
812.319214	421.000000
812.354614	430.000000
812.390015	423.000000
812.425293	432.000000
812.460693	424.000000
812.496094	421.000000
812.531433	414.000000
812.566772	418.000000
812.602173	409.000000
812.637451	407.000000
812.672852	411.000000
812.708191	415.000000
812.743530	411.000000
812.778931	406.000000
812.814270	401.000000
812.849609	406.000000
812.884949	410.000000
812.920227	398.000000
812.955627	409.000000
812.990967	410.000000
813.026306	399.000000
813.061646	386.000000
813.096985	384.000000
813.132324	383.000000
813.167664	385.000000
813.203003	391.000000
813.238281	377.000000
813.273682	380.000000
813.308960	379.000000
813.344299	377.000000
813.379639	380.000000
813.414978	376.000000
813.450256	380.000000
813.485596	378.000000
813.520874	375.000000
813.556213	373.000000
813.591614	369.000000
813.626831	370.000000
813.662170	369.000000
813.697510	378.000000
813.732788	364.000000
813.768127	368.000000
813.803467	371.000000
813.838745	355.000000
813.874084	365.000000
813.909363	359.000000
813.944641	371.000000
813.979980	362.000000
814.015320	364.000000
814.050598	355.000000
814.085876	369.000000
814.121155	358.000000
814.156494	362.000000
814.191772	362.000000
814.227051	352.000000
814.262390	354.000000
814.297668	366.000000
814.332947	351.000000
814.368225	350.000000
814.403564	349.000000
814.438782	345.000000
814.474121	350.000000
814.509338	348.000000
814.544617	354.000000
814.579956	349.000000
814.615173	352.000000
814.650513	350.000000
814.685791	347.000000
814.721008	351.000000
814.756348	348.000000
814.791626	343.000000
814.826843	347.000000
814.862122	336.000000
814.897400	339.000000
814.932678	341.000000
814.967957	333.000000
815.003235	335.000000
815.038452	332.000000
815.073730	337.000000
815.108948	340.000000
815.144226	340.000000
815.179504	337.000000
815.214722	324.000000
815.250000	331.000000
815.285278	332.000000
815.320496	322.000000
815.355774	324.000000
815.391052	332.000000
815.426270	318.000000
815.461487	325.000000
815.496765	317.000000
815.531982	309.000000
815.567261	317.000000
815.602539	324.000000
815.637695	322.000000
815.672974	322.000000
815.708191	316.000000
815.743408	324.000000
815.778687	314.000000
815.813904	321.000000
815.849121	303.000000
815.884399	311.000000
815.919556	301.000000
815.954834	310.000000
815.990051	308.000000
816.025269	315.000000
816.060486	309.000000
816.095703	308.000000
816.130920	305.000000
816.166199	302.000000
816.201416	302.000000
816.236572	310.000000
816.271851	301.000000
816.307007	306.000000
816.342224	287.000000
816.377441	293.000000
816.412659	292.000000
816.447876	299.000000
816.483093	299.000000
816.518250	299.000000
816.553467	295.000000
816.588745	300.000000
816.623901	287.000000
816.659119	282.000000
816.694275	291.000000
816.729492	286.000000
816.764709	320.000000
816.799927	285.000000
816.835083	296.000000
816.870300	281.000000
816.905457	282.000000
816.940674	283.000000
816.975830	282.000000
817.010986	277.000000
817.046204	280.000000
817.081421	274.000000
817.116577	275.000000
817.151733	283.000000
817.186951	287.000000
817.222107	285.000000
817.257324	287.000000
817.292419	280.000000
817.327637	278.000000
817.362854	281.000000
817.398010	274.000000
817.433167	273.000000
817.468323	281.000000
817.503479	273.000000
817.538635	284.000000
817.573853	280.000000
817.608948	277.000000
817.644165	273.000000
817.679321	278.000000
817.714478	269.000000
817.749634	276.000000
817.784790	283.000000
817.819946	277.000000
817.855103	261.000000
817.890198	271.000000
817.925415	260.000000
817.960571	273.000000
817.995667	270.000000
818.030823	268.000000
818.066040	263.000000
818.101135	275.000000
818.136292	264.000000
818.171448	259.000000
818.206543	266.000000
818.241699	271.000000
818.276855	268.000000
818.311951	269.000000
818.347107	262.000000
818.382263	271.000000
818.417358	271.000000
818.452515	272.000000
818.487610	274.000000
818.522766	264.000000
818.557922	274.000000
818.593018	264.000000
818.628113	261.000000
818.663269	262.000000
818.698364	267.000000
818.733521	263.000000
818.768677	263.000000
818.803711	255.000000
818.838867	260.000000
818.874023	254.000000
818.909058	257.000000
818.944214	256.000000
818.979370	260.000000
819.014404	257.000000
819.049561	249.000000
819.084595	253.000000
819.119751	255.000000
819.154846	253.000000
819.189941	256.000000
819.225037	245.000000
819.260193	245.000000
819.295227	246.000000
819.330322	248.000000
819.365479	241.000000
819.400513	273.000000
819.435608	237.000000
819.470764	246.000000
819.505798	243.000000
819.540894	244.000000
819.575989	245.000000
819.611084	245.000000
819.646179	249.000000
819.681213	246.000000
819.716309	242.000000
819.751404	241.000000
819.786438	249.000000
819.821533	237.000000
819.856628	243.000000
819.891663	247.000000
819.926758	249.000000
819.961853	247.000000
819.996887	235.000000
820.031982	243.000000
820.067017	237.000000
820.102112	265.000000
820.137207	237.000000
820.172302	253.000000
820.207275	235.000000
820.242371	236.000000
820.277405	233.000000
820.312500	234.000000
820.347534	235.000000
820.382568	243.000000
820.417664	238.000000
820.452759	235.000000
820.487732	233.000000
820.522827	231.000000
820.557861	232.000000
820.592896	229.000000
820.627930	233.000000
820.662964	233.000000
820.698059	239.000000
820.733093	230.000000
820.768127	235.000000
820.803162	230.000000
820.838196	229.000000
820.873230	228.000000
820.908264	235.000000
820.943298	229.000000
820.978333	233.000000
821.013367	231.000000
821.048401	233.000000
821.083435	232.000000
821.118469	223.000000
821.153503	232.000000
821.188477	230.000000
821.223511	218.000000
821.258484	227.000000
821.293579	227.000000
821.328613	221.000000
821.363647	227.000000
821.398621	218.000000
821.433655	225.000000
821.468628	236.000000
821.503662	221.000000
821.538696	230.000000
821.573669	222.000000
821.608704	224.000000
821.643677	225.000000
821.678650	230.000000
821.713684	228.000000
821.748718	221.000000
821.783691	224.000000
821.818726	221.000000
821.853638	222.000000
821.888672	221.000000
821.923706	216.000000
821.958618	216.000000
821.993652	215.000000
822.028687	222.000000
822.063599	229.000000
822.098633	224.000000
822.133667	218.000000
822.168579	220.000000
822.203613	221.000000
822.238586	219.000000
822.273560	225.000000
822.308533	217.000000
822.343567	216.000000
822.378479	217.000000
822.413452	216.000000
822.448425	212.000000
822.483398	230.000000
822.518372	220.000000
822.553345	213.000000
822.588318	223.000000
822.623291	216.000000
822.658203	208.000000
822.693237	220.000000
822.728210	209.000000
822.763123	214.000000
822.798096	207.000000
822.833069	216.000000
822.867981	207.000000
822.902954	216.000000
822.937927	212.000000
822.972900	220.000000
823.007874	203.000000
823.042725	216.000000
823.077698	216.000000
823.112671	205.000000
823.147583	206.000000
823.182556	211.000000
823.217529	214.000000
823.252441	206.000000
823.287415	221.000000
823.322388	211.000000
823.357239	208.000000
823.392212	216.000000
823.427185	213.000000
823.462097	208.000000
823.497009	207.000000
823.531982	209.000000
823.566895	207.000000
823.601807	197.000000
823.636719	207.000000
823.671631	211.000000
823.706604	206.000000
823.741455	211.000000
823.776428	203.000000
823.811340	211.000000
823.846252	211.000000
823.881165	214.000000
823.916138	203.000000
823.950989	213.000000
823.985901	208.000000
824.020813	202.000000
824.055725	206.000000
824.090637	197.000000
824.125610	204.000000
824.160461	207.000000
824.195374	211.000000
824.230225	211.000000
824.265198	199.000000
824.300110	202.000000
824.334961	213.000000
824.369873	194.000000
824.404785	209.000000
824.439636	208.000000
824.474548	196.000000
824.509460	192.000000
824.544312	207.000000
824.579224	205.000000
824.614075	208.000000
824.648987	201.000000
824.683899	202.000000
824.718811	202.000000
824.753662	206.000000
824.788574	204.000000
824.823364	201.000000
824.858276	196.000000
824.893188	203.000000
824.928040	206.000000
824.962952	204.000000
824.997803	203.000000
825.032654	202.000000
825.067566	203.000000
825.102417	203.000000
825.137268	202.000000
825.172119	199.000000
825.206970	198.000000
825.241882	200.000000
825.276733	194.000000
825.311646	200.000000
825.346436	192.000000
825.381348	193.000000
825.416138	196.000000
825.450989	193.000000
825.485901	191.000000
825.520691	197.000000
825.555542	193.000000
825.590454	197.000000
825.625244	193.000000
825.660095	207.000000
825.695007	201.000000
825.729797	198.000000
825.764648	198.000000
825.799438	196.000000
825.834290	195.000000
825.869202	187.000000
825.903992	196.000000
825.938843	201.000000
825.973694	196.000000
826.008484	207.000000
826.043335	195.000000
826.078186	185.000000
826.112976	201.000000
826.147827	198.000000
826.182678	204.000000
826.217468	187.000000
826.252319	201.000000
826.287109	191.000000
826.321899	200.000000
826.356750	195.000000
826.391541	192.000000
826.426392	198.000000
826.461182	197.000000
826.495972	188.000000
826.530823	183.000000
826.565613	194.000000
826.600403	191.000000
826.635254	192.000000
826.670044	187.000000
826.704834	183.000000
826.739685	184.000000
826.774475	193.000000
826.809265	190.000000
826.844055	187.000000
826.878906	197.000000
826.913635	191.000000
826.948425	197.000000
826.983215	192.000000
827.018005	197.000000
827.052856	189.000000
827.087585	197.000000
827.122375	187.000000
827.157227	190.000000
827.191956	202.000000
827.226746	189.000000
827.261536	194.000000
827.296265	186.000000
827.331116	190.000000
827.365906	193.000000
827.400635	190.000000
827.435425	185.000000
827.470215	197.000000
827.504944	188.000000
827.539734	196.000000
827.574463	187.000000
827.609253	200.000000
827.644043	191.000000
827.678772	196.000000
827.713562	186.000000
827.748352	192.000000
827.783081	188.000000
827.817871	190.000000
827.852600	185.000000
827.887329	190.000000
827.922119	181.000000
827.956848	192.000000
827.991638	203.000000
828.026367	191.000000
828.061157	193.000000
828.095886	189.000000
828.130615	202.000000
828.165344	174.000000
828.200073	185.000000
828.234863	188.000000
828.269592	184.000000
828.304321	193.000000
828.339111	190.000000
828.373779	181.000000
828.408569	190.000000
828.443298	192.000000
828.477966	184.000000
828.512756	190.000000
828.547424	178.000000
828.582214	186.000000
828.616943	186.000000
828.651672	189.000000
828.686340	191.000000
828.721130	181.000000
828.755798	183.000000
828.790527	189.000000
828.825256	182.000000
828.859924	191.000000
828.894714	191.000000
828.929443	195.000000
828.964111	185.000000
828.998840	192.000000
829.033569	183.000000
829.068237	189.000000
829.102966	185.000000
829.137634	191.000000
829.172363	189.000000
829.207092	186.000000
829.241821	181.000000
829.276489	180.000000
829.311157	190.000000
829.345825	184.000000
829.380554	192.000000
829.415283	180.000000
829.449951	183.000000
829.484619	189.000000
829.519348	192.000000
829.554016	187.000000
829.588745	190.000000
829.623413	177.000000
829.658081	201.000000
829.692749	180.000000
829.727417	189.000000
829.762146	178.000000
829.796814	180.000000
829.831482	177.000000
829.866150	188.000000
829.900879	178.000000
829.935486	189.000000
829.970154	181.000000
830.004883	199.000000
830.039490	183.000000
830.074219	181.000000
830.108887	179.000000
830.143494	184.000000
830.178223	174.000000
830.212891	182.000000
830.247498	183.000000
830.282166	191.000000
830.316772	188.000000
830.351501	185.000000
830.386169	181.000000
830.420776	182.000000
830.455444	184.000000
830.490112	179.000000
830.524719	180.000000
830.559387	189.000000
830.594055	181.000000
830.628662	184.000000
830.663330	185.000000
830.697998	190.000000
830.732605	183.000000
830.767273	188.000000
830.801941	183.000000
830.836487	192.000000
830.871155	188.000000
830.905762	190.000000
830.940430	176.000000
830.975098	183.000000
831.009644	186.000000
831.044312	193.000000
831.078979	189.000000
831.113525	176.000000
831.148193	184.000000
831.182861	182.000000
831.217407	186.000000
831.252075	197.000000
831.286621	184.000000
831.321289	178.000000
831.355896	185.000000
831.390564	192.000000
831.425110	186.000000
831.459778	187.000000
831.494324	201.000000
831.528931	187.000000
831.563599	191.000000
831.598145	178.000000
831.632751	188.000000
831.667419	182.000000
831.701965	188.000000
831.736572	185.000000
831.771179	179.000000
831.805786	181.000000
831.840393	188.000000
831.874939	174.000000
831.909546	188.000000
831.944153	177.000000
831.978760	183.000000
832.013306	180.000000
832.047913	191.000000
832.082458	194.000000
832.117065	183.000000
832.151672	189.000000
832.186218	187.000000
832.220825	188.000000
832.255432	177.000000
832.289978	182.000000
832.324585	187.000000
832.359192	186.000000
832.393677	185.000000
832.428284	183.000000
832.462830	180.000000
832.497437	179.000000
832.531982	190.000000
832.566589	179.000000
832.601135	189.000000
832.635681	180.000000
832.670227	185.000000
832.704773	191.000000
832.739380	184.000000
832.773926	181.000000
832.808472	180.000000
832.843079	186.000000
832.877563	187.000000
832.912170	183.000000
832.946716	176.000000
832.981201	193.000000
833.015808	189.000000
833.050293	186.000000
833.084839	179.000000
833.119446	187.000000
833.153992	189.000000
833.188477	182.000000
833.223022	179.000000
833.257568	185.000000
833.292114	192.000000
833.326660	193.000000
833.361145	182.000000
833.395691	180.000000
833.430237	185.000000
833.464783	188.000000
833.499329	180.000000
833.533875	181.000000
833.568359	186.000000
833.602905	187.000000
833.637390	190.000000
833.671875	182.000000
833.706421	183.000000
833.740906	184.000000
833.775452	175.000000
833.809998	181.000000
833.844482	190.000000
833.879028	187.000000
833.913513	179.000000
833.947998	186.000000
833.982544	183.000000
834.017090	179.000000
834.051514	175.000000
834.086060	190.000000
834.120544	180.000000
834.155029	191.000000
834.189575	182.000000
834.223999	184.000000
834.258545	183.000000
834.293030	186.000000
834.327515	183.000000
834.362000	183.000000
834.396545	187.000000
834.430969	184.000000
834.465454	189.000000
834.500000	181.000000
834.534424	184.000000
834.568970	181.000000
834.603455	177.000000
834.637878	185.000000
834.672363	184.000000
834.706909	187.000000
834.741333	183.000000
834.775818	177.000000
834.810242	182.000000
834.844727	183.000000
834.879211	186.000000
834.913635	187.000000
834.948181	183.000000
834.982666	184.000000
835.017090	180.000000
835.051575	182.000000
835.086060	183.000000
835.120483	187.000000
835.154907	191.000000
835.189331	185.000000
835.223816	189.000000
835.258301	175.000000
835.292786	177.000000
835.327209	191.000000
835.361694	180.000000
835.396057	179.000000
835.430542	186.000000
835.465027	182.000000
835.499390	180.000000
835.533875	201.000000
835.568359	182.000000
835.602722	173.000000
835.637207	187.000000
835.671692	174.000000
835.706055	201.000000
835.740540	185.000000
835.774902	186.000000
835.809387	182.000000
835.843811	182.000000
835.878235	185.000000
835.912659	178.000000
835.947083	180.000000
835.981506	182.000000
836.015930	177.000000
836.050354	189.000000
836.084778	188.000000
836.119202	189.000000
836.153625	200.000000
836.187988	179.000000
836.222473	182.000000
836.256897	186.000000
836.291260	178.000000
836.325684	189.000000
836.360046	185.000000
836.394470	182.000000
836.428894	194.000000
836.463318	179.000000
836.497681	188.000000
836.532104	192.000000
836.566467	185.000000
836.600891	181.000000
836.635315	189.000000
836.669678	189.000000
836.704102	189.000000
836.738525	185.000000
836.772888	179.000000
836.807251	179.000000
836.841675	189.000000
836.876038	180.000000
836.910461	181.000000
836.944763	189.000000
836.979187	180.000000
837.013611	190.000000
837.047974	180.000000
837.082336	193.000000
837.116699	186.000000
837.151062	182.000000
837.185486	180.000000
837.219849	178.000000
837.254211	189.000000
837.288574	181.000000
837.322937	180.000000
837.357300	171.000000
837.391663	193.000000
837.426086	186.000000
837.460388	186.000000
837.494751	187.000000
837.529114	181.000000
837.563477	190.000000
837.597839	190.000000
837.632141	184.000000
837.666565	187.000000
837.700928	186.000000
837.735229	182.000000
837.769592	181.000000
837.803955	192.000000
837.838257	179.000000
837.872620	185.000000
837.906982	194.000000
837.941284	186.000000
837.975647	187.000000
838.010010	189.000000
838.044312	178.000000
838.078674	184.000000
838.112976	187.000000
838.147339	188.000000
838.181702	190.000000
838.216003	194.000000
838.250366	186.000000
838.284668	183.000000
838.318970	178.000000
838.353333	182.000000
838.387634	186.000000
838.421936	184.000000
838.456299	187.000000
838.490601	193.000000
838.524902	185.000000
838.559265	186.000000
838.593567	189.000000
838.627869	178.000000
838.662170	187.000000
838.696472	177.000000
838.730774	183.000000
838.765137	188.000000
838.799377	175.000000
838.833740	186.000000
838.868042	189.000000
838.902283	172.000000
838.936646	190.000000
838.970947	183.000000
839.005188	192.000000
839.039551	176.000000
839.073792	191.000000
839.108093	181.000000
839.142395	194.000000
839.176697	172.000000
839.210937	184.000000
839.245300	194.000000
839.279541	178.000000
839.313843	181.000000
839.348145	185.000000
839.382385	187.000000
839.416687	190.000000
839.450989	187.000000
839.485229	185.000000
839.519531	179.000000
839.553833	192.000000
839.588013	183.000000
839.622314	184.000000
839.656555	189.000000
839.690857	184.000000
839.725159	177.000000
839.759460	182.000000
839.793640	181.000000
839.827942	184.000000
839.862183	183.000000
839.896423	186.000000
839.930725	196.000000
839.964966	196.000000
839.999207	189.000000
840.033508	193.000000
840.067688	181.000000
840.101990	194.000000
840.136230	190.000000
840.170471	192.000000
840.204712	185.000000
840.238953	181.000000
840.273193	187.000000
840.307434	190.000000
840.341736	184.000000
840.375916	180.000000
840.410217	180.000000
840.444397	187.000000
840.478638	190.000000
840.512878	188.000000
840.547119	187.000000
840.581360	186.000000
840.615601	195.000000
840.649780	194.000000
840.684021	186.000000
840.718262	189.000000
840.752441	189.000000
840.786682	182.000000
840.820862	188.000000
840.855103	192.000000
840.889343	185.000000
840.923584	185.000000
840.957764	190.000000
840.992004	187.000000
841.026184	197.000000
841.060425	182.000000
841.094666	182.000000
841.128845	186.000000
841.163025	189.000000
841.197266	189.000000
841.231445	186.000000
841.265686	187.000000
841.299866	182.000000
841.334045	190.000000
841.368286	190.000000
841.402405	194.000000
841.436646	189.000000
841.470825	182.000000
841.505005	185.000000
841.539185	178.000000
841.573425	180.000000
841.607544	187.000000
841.641785	185.000000
841.675964	180.000000
841.710144	187.000000
841.744324	182.000000
841.778503	188.000000
841.812683	187.000000
841.846863	194.000000
841.881042	193.000000
841.915222	181.000000
841.949402	199.000000
841.983521	176.000000
842.017700	187.000000
842.051880	182.000000
842.086060	194.000000
842.120239	185.000000
842.154419	184.000000
842.188538	186.000000
842.222717	182.000000
842.256897	193.000000
842.291016	185.000000
842.325195	187.000000
842.359375	198.000000
842.393494	191.000000
842.427673	188.000000
842.461853	187.000000
842.495911	196.000000
842.530090	182.000000
842.564209	189.000000
842.598389	185.000000
842.632568	184.000000
842.666626	187.000000
842.700806	185.000000
842.734985	180.000000
842.769043	187.000000
842.803223	183.000000
842.837402	182.000000
842.871460	181.000000
842.905640	194.000000
842.939697	176.000000
842.973877	185.000000
843.007996	189.000000
843.042175	195.000000
843.076233	181.000000
843.110413	188.000000
843.144470	193.000000
843.178589	187.000000
843.212769	183.000000
843.246826	191.000000
843.280945	184.000000
843.315125	188.000000
843.349182	182.000000
843.383301	193.000000
843.417419	199.000000
843.451538	187.000000
843.485657	184.000000
843.519714	190.000000
843.553833	191.000000
843.587952	185.000000
843.622070	180.000000
843.656128	192.000000
843.690247	183.000000
843.724304	187.000000
843.758423	187.000000
843.792542	182.000000
843.826599	188.000000
843.860718	179.000000
843.894836	177.000000
843.928894	186.000000
843.963013	186.000000
843.997070	180.000000
844.031128	181.000000
844.065247	191.000000
844.099304	191.000000
844.133362	190.000000
844.167480	191.000000
844.201599	190.000000
844.235596	191.000000
844.269714	187.000000
844.303711	188.000000
844.337830	177.000000
844.371948	195.000000
844.405945	180.000000
844.440063	177.000000
844.474121	196.000000
844.508118	181.000000
844.542236	187.000000
844.576294	185.000000
844.610352	175.000000
844.644409	185.000000
844.678406	173.000000
844.712524	189.000000
844.746582	191.000000
844.780640	187.000000
844.814636	182.000000
844.848755	197.000000
844.882751	187.000000
844.916809	190.000000
844.950867	189.000000
844.984863	193.000000
845.018921	184.000000
845.052979	182.000000
845.086975	189.000000
845.121033	179.000000
845.155090	182.000000
845.189087	192.000000
845.223145	184.000000
845.257141	189.000000
845.291199	189.000000
845.325256	193.000000
845.359253	190.000000
845.393250	200.000000
845.427307	185.000000
845.461304	190.000000
845.495361	185.000000
845.529358	193.000000
845.563354	185.000000
845.597412	180.000000
845.631409	196.000000
845.665405	192.000000
845.699463	194.000000
845.733459	182.000000
845.767456	193.000000
845.801453	179.000000
845.835449	189.000000
845.869446	191.000000
845.903503	191.000000
845.937439	181.000000
845.971497	196.000000
846.005493	174.000000
846.039429	191.000000
846.073486	195.000000
846.107483	186.000000
846.141418	181.000000
846.175476	187.000000
846.209473	189.000000
846.243408	185.000000
846.277405	186.000000
846.311401	183.000000
846.345337	180.000000
846.379395	193.000000
846.413330	181.000000
846.447327	195.000000
846.481323	180.000000
846.515259	182.000000
846.549255	185.000000
846.583252	193.000000
846.617187	182.000000
846.651184	186.000000
846.685120	184.000000
846.719055	198.000000
846.753052	185.000000
846.786987	193.000000
846.820984	180.000000
846.854980	191.000000
846.888916	182.000000
846.922852	193.000000
846.956848	192.000000
846.990723	182.000000
847.024719	187.000000
847.058716	182.000000
847.092590	191.000000
847.126587	188.000000
847.160522	184.000000
847.194458	190.000000
847.228455	186.000000
847.262390	181.000000
847.296265	188.000000
847.330261	193.000000
847.364136	186.000000
847.398132	183.000000
847.432068	187.000000
847.466003	184.000000
847.499939	189.000000
847.533875	186.000000
847.567749	185.000000
847.601746	183.000000
847.635681	193.000000
847.669556	177.000000
847.703491	195.000000
847.737427	196.000000
847.771301	180.000000
847.805237	186.000000
847.839233	189.000000
847.873108	185.000000
847.907043	186.000000
847.940918	189.000000
847.974854	190.000000
848.008789	186.000000
848.042664	186.000000
848.076538	184.000000
848.110474	186.000000
848.144348	188.000000
848.178284	181.000000
848.212219	186.000000
848.246094	184.000000
848.279968	185.000000
848.313904	190.000000
848.347778	188.000000
848.381653	185.000000
848.415588	179.000000
848.449463	185.000000
848.483337	184.000000
848.517212	193.000000
848.551086	187.000000
848.585022	181.000000
848.618835	194.000000
848.652771	184.000000
848.686646	182.000000
848.720520	197.000000
848.754395	187.000000
848.788330	191.000000
848.822144	190.000000
848.856018	188.000000
848.889954	194.000000
848.923767	184.000000
848.957642	187.000000
848.991577	185.000000
849.025391	190.000000
849.059265	185.000000
849.093079	185.000000
849.126953	182.000000
849.160828	194.000000
849.194641	183.000000
849.228577	185.000000
849.262451	184.000000
849.296265	186.000000
849.330139	182.000000
849.364014	189.000000
849.397827	186.000000
849.431702	190.000000
849.465515	185.000000
849.499329	176.000000
849.533203	177.000000
849.567078	178.000000
849.600891	189.000000
849.634766	186.000000
849.668518	184.000000
849.702393	183.000000
849.736267	174.000000
849.770020	201.000000
849.803894	184.000000
849.837769	183.000000
849.871521	184.000000
849.905396	188.000000
849.939270	183.000000
849.973022	185.000000
850.006897	186.000000
850.040710	189.000000
850.074524	190.000000
850.108337	181.000000
850.142151	186.000000
850.175964	196.000000
850.209778	183.000000
850.243530	174.000000
850.277405	190.000000
850.311218	181.000000
850.344971	179.000000
850.378845	193.000000
850.412659	179.000000
850.446411	189.000000
850.480225	185.000000
850.514038	189.000000
850.547791	187.000000
850.581665	187.000000
850.615417	183.000000
850.649231	188.000000
850.683044	185.000000
850.716858	187.000000
850.750610	187.000000
850.784424	192.000000
850.818176	183.000000
850.851929	186.000000
850.885742	186.000000
850.919495	185.000000
850.953308	195.000000
850.987122	193.000000
851.020874	183.000000
851.054626	179.000000
851.088440	191.000000
851.122192	187.000000
851.156006	185.000000
851.189697	185.000000
851.223511	183.000000
851.257263	191.000000
851.291077	188.000000
851.324829	181.000000
851.358582	182.000000
851.392334	184.000000
851.426086	183.000000
851.459900	192.000000
851.493591	186.000000
851.527344	181.000000
851.561157	187.000000
851.594849	188.000000
851.628662	186.000000
851.662415	195.000000
851.696106	192.000000
851.729858	187.000000
851.763611	180.000000
851.797363	189.000000
851.831116	181.000000
851.864868	188.000000
851.898560	194.000000
851.932312	181.000000
851.966064	190.000000
851.999817	187.000000
852.033569	186.000000
852.067261	192.000000
852.101013	183.000000
852.134766	182.000000
852.168457	177.000000
852.202209	196.000000
852.235901	183.000000
852.269592	191.000000
852.303345	196.000000
852.337036	186.000000
852.370789	186.000000
852.404541	192.000000
852.438171	181.000000
852.471924	186.000000
852.505676	183.000000
852.539307	190.000000
852.573059	183.000000
852.606812	185.000000
852.640442	185.000000
852.674194	193.000000
852.707886	194.000000
852.741577	196.000000
852.775269	185.000000
852.809021	189.000000
852.842651	190.000000
852.876404	196.000000
852.910034	182.000000
852.943787	193.000000
852.977478	187.000000
853.011108	187.000000
853.044861	181.000000
853.078552	195.000000
853.112183	185.000000
853.145874	189.000000
853.179626	173.000000
853.213257	186.000000
853.246948	187.000000
853.280640	196.000000
853.314270	183.000000
853.347961	196.000000
853.381653	186.000000
853.415283	188.000000
853.448975	181.000000
853.482605	189.000000
853.516296	185.000000
853.549988	179.000000
853.583618	187.000000
853.617310	191.000000
853.651001	185.000000
853.684631	184.000000
853.718323	185.000000
853.751953	193.000000
853.785583	180.000000
853.819275	192.000000
853.852966	188.000000
853.886536	180.000000
853.920227	181.000000
853.953918	193.000000
853.987488	183.000000
854.021179	192.000000
854.054749	193.000000
854.088440	191.000000
854.122131	183.000000
854.155701	189.000000
854.189331	184.000000
854.223022	189.000000
854.256592	190.000000
854.290283	185.000000
854.323914	189.000000
854.357483	187.000000
854.391174	191.000000
854.424744	194.000000
854.458374	188.000000
854.492065	196.000000
854.525696	191.000000
854.559265	191.000000
854.592896	199.000000
854.626465	188.000000
854.660095	190.000000
854.693787	185.000000
854.727356	184.000000
854.760986	186.000000
854.794617	191.000000
854.828186	183.000000
854.861816	190.000000
854.895447	188.000000
854.929016	186.000000
854.962585	189.000000
854.996155	198.000000
855.029785	185.000000
855.063416	186.000000
855.097046	189.000000
855.130615	184.000000
855.164185	189.000000
855.197754	187.000000
855.231384	189.000000
855.264954	185.000000
855.298523	189.000000
855.332153	188.000000
855.365723	192.000000
855.399292	182.000000
855.432922	186.000000
855.466492	189.000000
855.500061	185.000000
855.533630	183.000000
855.567200	185.000000
855.600769	195.000000
855.634338	193.000000
855.667969	186.000000
855.701477	187.000000
855.735046	184.000000
855.768616	177.000000
855.802185	191.000000
855.835754	200.000000
855.869324	180.000000
855.902893	188.000000
855.936401	193.000000
855.969971	186.000000
856.003540	181.000000
856.037109	192.000000
856.070618	182.000000
856.104187	185.000000
856.137695	181.000000
856.171265	179.000000
856.204834	183.000000
856.238403	193.000000
856.271912	182.000000
856.305481	190.000000
856.338989	177.000000
856.372559	189.000000
856.406128	188.000000
856.439636	192.000000
856.473145	183.000000
856.506653	195.000000
856.540222	186.000000
856.573792	192.000000
856.607300	185.000000
856.640808	182.000000
856.674377	185.000000
856.707825	217.000000
856.741394	191.000000
856.774902	183.000000
856.808472	179.000000
856.841980	191.000000
856.875488	190.000000
856.908936	180.000000
856.942505	186.000000
856.976013	188.000000
857.009521	183.000000
857.043030	191.000000
857.076477	183.000000
857.110046	191.000000
857.143555	188.000000
857.177063	187.000000
857.210571	187.000000
857.244080	184.000000
857.277527	184.000000
857.311035	185.000000
857.344543	187.000000
857.378052	184.000000
857.411499	197.000000
857.445068	199.000000
857.478516	184.000000
857.512024	182.000000
857.545532	189.000000
857.578979	189.000000
857.612427	190.000000
857.645874	181.000000
857.679382	186.000000
857.712891	189.000000
857.746399	192.000000
857.779846	190.000000
857.813354	197.000000
857.846741	186.000000
857.880249	184.000000
857.913757	186.000000
857.947266	191.000000
857.980652	190.000000
858.014160	186.000000
858.047546	184.000000
858.081055	189.000000
858.114563	197.000000
858.147949	183.000000
858.181458	187.000000
858.214844	182.000000
858.248352	179.000000
858.281799	195.000000
858.315308	193.000000
858.348694	191.000000
858.382141	190.000000
858.415588	190.000000
858.449036	186.000000
858.482483	188.000000
858.515930	181.000000
858.549377	192.000000
858.582825	188.000000
858.616211	192.000000
858.649658	187.000000
858.683105	180.000000
858.716553	181.000000
858.750000	184.000000
858.783386	181.000000
858.816833	178.000000
858.850281	189.000000
858.883728	186.000000
858.917114	185.000000
858.950562	194.000000
858.983948	195.000000
859.017395	194.000000
859.050781	187.000000
859.084167	182.000000
859.117615	180.000000
859.151062	192.000000
859.184448	182.000000
859.217834	185.000000
859.251282	185.000000
859.284668	180.000000
859.318054	178.000000
859.351440	183.000000
859.384888	194.000000
859.418274	179.000000
859.451721	181.000000
859.485046	187.000000
859.518494	189.000000
859.551819	184.000000
859.585266	188.000000
859.618652	193.000000
859.652039	182.000000
859.685425	179.000000
859.718811	185.000000
859.752197	174.000000
859.785583	192.000000
859.819031	191.000000
859.852356	196.000000
859.885742	182.000000
859.919067	188.000000
859.952454	177.000000
859.985901	192.000000
860.019287	183.000000
860.052612	0.000000
860.085999	0.000000
860.119324	0.000000
860.152710	0.000000
860.186096	0.000000
860.219421	0.000000
860.252808	0.000000
860.286133	0.000000
860.319519	0.000000
860.352905	0.000000
860.386292	0.000000
860.419617	0.000000
860.452942	0.000000
860.486267	0.000000
860.519653	0.000000
860.553040	0.000000
860.586365	0.000000
860.619690	0.000000
860.653076	0.000000
860.686340	0.000000
860.719727	0.000000
860.753113	0.000000
860.786377	0.000000
860.819763	0.000000
860.853027	0.000000
860.886414	0.000000
860.919739	0.000000
860.953125	0.000000
860.986389	0.000000
861.019714	0.000000
861.053040	0.000000
861.086365	0.000000
861.119690	0.000000
861.153076	0.000000
861.186340	0.000000
861.219666	0.000000
861.252930	0.000000
861.286316	0.000000
861.319641	0.000000
861.352905	0.000000
861.386230	0.000000
861.419495	0.000000
861.452820	0.000000
861.486145	0.000000
861.519470	0.000000
861.552734	0.000000
861.586060	0.000000
861.619324	0.000000
861.652649	0.000000
861.685974	0.000000
861.719238	0.000000
861.752563	0.000000
861.785828	0.000000
861.819092	0.000000
861.852417	0.000000
861.885742	0.000000
861.918945	0.000000
861.952271	0.000000
861.985535	0.000000
862.018799	0.000000
862.052124	0.000000
862.085449	0.000000
862.118652	0.000000
862.151978	0.000000
862.185181	0.000000
862.218506	0.000000
862.251770	0.000000
862.285034	0.000000
862.318298	0.000000
862.351562	0.000000
862.384827	0.000000
862.418091	0.000000
862.451355	0.000000
862.484619	0.000000
862.517883	0.000000
862.551086	0.000000
862.584351	0.000000
862.617676	0.000000
862.650940	0.000000
862.684143	0.000000
862.717407	0.000000
862.750610	0.000000
862.783875	0.000000
862.817139	0.000000
862.850342	0.000000
862.883606	0.000000
862.916870	0.000000
862.950073	0.000000
862.983337	0.000000
863.016602	0.000000
863.049805	0.000000
863.083069	0.000000
863.116211	0.000000
863.149475	0.000000
863.182739	0.000000
863.216003	0.000000
863.249146	0.000000
863.282410	0.000000
863.315613	0.000000
863.348816	0.000000
863.382080	0.000000
863.415222	0.000000
863.448486	0.000000
863.481689	0.000000
863.514893	0.000000
863.548157	0.000000
863.581360	0.000000
863.614502	0.000000
863.647766	0.000000
863.680908	0.000000
863.714172	0.000000
863.747375	0.000000
863.780579	0.000000
863.813721	0.000000
863.846985	0.000000
863.880127	0.000000
863.913330	0.000000
863.946533	0.000000
863.979675	0.000000
864.012939	0.000000
