Model Number: SPM-001-M   
Serial Number: 10090201
Firmware Version: 004.17.6
Exposure Time: 500000.000000us
Data Taken on: 27-08-2020 09:41:50.485
Wavelength	Amplitude
733.770752	0.000000
733.808716	0.000000
733.846619	0.000000
733.884583	0.000000
733.922546	0.000000
733.960449	0.000000
733.998413	0.000000
734.036377	0.000000
734.074219	0.000000
734.112183	0.000000
734.150085	0.000000
734.188049	0.000000
734.226013	0.000000
734.263916	0.000000
734.301819	0.000000
734.339783	0.000000
734.377686	0.000000
734.415588	0.000000
734.453552	0.000000
734.491455	0.000000
734.529419	0.000000
734.567322	0.000000
734.605225	0.000000
734.643127	0.000000
734.681091	0.000000
734.718994	0.000000
734.756897	0.000000
734.794800	0.000000
734.832703	0.000000
734.870667	0.000000
734.908508	0.000000
734.946472	0.000000
734.984375	0.000000
735.022278	0.000000
735.060181	0.000000
735.098083	0.000000
735.135986	0.000000
735.173889	0.000000
735.211792	0.000000
735.249695	0.000000
735.287598	0.000000
735.325439	0.000000
735.363403	0.000000
735.401306	0.000000
735.439148	0.000000
735.477051	0.000000
735.515015	0.000000
735.552856	0.000000
735.590759	0.000000
735.628662	0.000000
735.666504	0.000000
735.704407	0.000000
735.742310	0.000000
735.780212	0.000000
735.818115	0.000000
735.856018	0.000000
735.893860	0.000000
735.931763	0.000000
735.969604	0.000000
736.007507	0.000000
736.045410	0.000000
736.083252	0.000000
736.121094	0.000000
736.158997	0.000000
736.196838	0.000000
736.234741	0.000000
736.272644	0.000000
736.310486	0.000000
736.348389	0.000000
736.386230	0.000000
736.424072	0.000000
736.461975	0.000000
736.499878	0.000000
736.537720	0.000000
736.575562	0.000000
736.613403	0.000000
736.651306	0.000000
736.689148	0.000000
736.726990	0.000000
736.764893	0.000000
736.802734	0.000000
736.840576	0.000000
736.878418	0.000000
736.916321	0.000000
736.954102	0.000000
736.992004	0.000000
737.029846	0.000000
737.067688	0.000000
737.105530	0.000000
737.143372	0.000000
737.181213	0.000000
737.219116	0.000000
737.256897	0.000000
737.294739	0.000000
737.332642	0.000000
737.370422	0.000000
737.408325	0.000000
737.446167	0.000000
737.483948	0.000000
737.521790	0.000000
737.559692	0.000000
737.597473	0.000000
737.635315	0.000000
737.673157	0.000000
737.710999	0.000000
737.748840	0.000000
737.786621	0.000000
737.824463	0.000000
737.862305	0.000000
737.900085	0.000000
737.937927	0.000000
737.975769	0.000000
738.013550	0.000000
738.051392	0.000000
738.089233	0.000000
738.127014	0.000000
738.164856	0.000000
738.202698	0.000000
738.240479	0.000000
738.278320	0.000000
738.316162	0.000000
738.353943	0.000000
738.391785	0.000000
738.429565	0.000000
738.467407	0.000000
738.505188	0.000000
738.542969	0.000000
738.580811	0.000000
738.618652	0.000000
738.656372	0.000000
738.694214	0.000000
738.732056	0.000000
738.769836	0.000000
738.807617	0.000000
738.845459	0.000000
738.883240	0.000000
738.921021	0.000000
738.958862	0.000000
738.996582	0.000000
739.034424	0.000000
739.072205	0.000000
739.109985	0.000000
739.147827	0.000000
739.185547	0.000000
739.223389	0.000000
739.261169	0.000000
739.298889	0.000000
739.336731	0.000000
739.374512	0.000000
739.412292	0.000000
739.450073	0.000000
739.487854	0.000000
739.525635	0.000000
739.563416	0.000000
739.601135	0.000000
739.638977	0.000000
739.676758	0.000000
739.714478	0.000000
739.752258	0.000000
739.790100	0.000000
739.827820	0.000000
739.865601	0.000000
739.903381	0.000000
739.941101	0.000000
739.978882	187.000000
740.016724	183.000000
740.054443	189.000000
740.092224	185.000000
740.130005	179.000000
740.167725	178.000000
740.205505	182.000000
740.243225	190.000000
740.281006	181.000000
740.318787	176.000000
740.356506	194.000000
740.394287	189.000000
740.432068	179.000000
740.469727	181.000000
740.507507	187.000000
740.545288	185.000000
740.583008	189.000000
740.620789	183.000000
740.658569	178.000000
740.696228	180.000000
740.734009	188.000000
740.771790	170.000000
740.809509	188.000000
740.847229	175.000000
740.884949	181.000000
740.922729	178.000000
740.960449	185.000000
740.998169	179.000000
741.035950	182.000000
741.073669	183.000000
741.111389	188.000000
741.149170	190.000000
741.186890	193.000000
741.224609	187.000000
741.262329	184.000000
741.300110	190.000000
741.337769	185.000000
741.375549	176.000000
741.413208	183.000000
741.450989	177.000000
741.488708	183.000000
741.526367	177.000000
741.564148	189.000000
741.601868	187.000000
741.639526	179.000000
741.677307	185.000000
741.715027	189.000000
741.752686	176.000000
741.790466	191.000000
741.828186	186.000000
741.865845	177.000000
741.903564	176.000000
741.941345	188.000000
741.979004	180.000000
742.016724	186.000000
742.054382	182.000000
742.092102	187.000000
742.129822	178.000000
742.167480	182.000000
742.205200	182.000000
742.242920	189.000000
742.280640	194.000000
742.318359	180.000000
742.356079	182.000000
742.393738	187.000000
742.431396	184.000000
742.469116	185.000000
742.506775	177.000000
742.544495	186.000000
742.582214	189.000000
742.619873	182.000000
742.657593	191.000000
742.695251	190.000000
742.732971	186.000000
742.770630	183.000000
742.808289	189.000000
742.846008	184.000000
742.883728	186.000000
742.921326	182.000000
742.959045	185.000000
742.996765	181.000000
743.034424	186.000000
743.072083	179.000000
743.109802	182.000000
743.147400	174.000000
743.185120	186.000000
743.222839	177.000000
743.260437	191.000000
743.298157	183.000000
743.335754	175.000000
743.373474	181.000000
743.411133	176.000000
743.448792	182.000000
743.486450	185.000000
743.524170	172.000000
743.561768	183.000000
743.599487	192.000000
743.637146	200.000000
743.674744	181.000000
743.712463	180.000000
743.750122	186.000000
743.787720	184.000000
743.825439	178.000000
743.863037	185.000000
743.900696	184.000000
743.938416	211.000000
743.976013	182.000000
744.013672	191.000000
744.051331	188.000000
744.088928	196.000000
744.126587	190.000000
744.164307	187.000000
744.201904	185.000000
744.239563	181.000000
744.277222	186.000000
744.314819	183.000000
744.352478	192.000000
744.390137	189.000000
744.427734	190.000000
744.465393	184.000000
744.502991	180.000000
744.540649	185.000000
744.578308	186.000000
744.615906	179.000000
744.653564	179.000000
744.691223	189.000000
744.728821	177.000000
744.766418	178.000000
744.804077	186.000000
744.841675	183.000000
744.879333	183.000000
744.916992	182.000000
744.954529	183.000000
744.992187	188.000000
745.029785	184.000000
745.067444	178.000000
745.105042	185.000000
745.142639	185.000000
745.180298	194.000000
745.217896	181.000000
745.255493	184.000000
745.293152	186.000000
745.330750	192.000000
745.368347	187.000000
745.405945	188.000000
745.443604	184.000000
745.481140	190.000000
745.518799	178.000000
745.556396	189.000000
745.593994	184.000000
745.631592	184.000000
745.669189	178.000000
745.706787	188.000000
745.744385	178.000000
745.781982	188.000000
745.819580	176.000000
745.857178	188.000000
745.894775	188.000000
745.932373	189.000000
745.969971	189.000000
746.007568	176.000000
746.045166	189.000000
746.082764	192.000000
746.120300	192.000000
746.157898	188.000000
746.195557	189.000000
746.233093	180.000000
746.270691	188.000000
746.308228	187.000000
746.345825	194.000000
746.383423	186.000000
746.420959	180.000000
746.458557	183.000000
746.496155	179.000000
746.533691	185.000000
746.571289	182.000000
746.608887	180.000000
746.646423	180.000000
746.684021	184.000000
746.721619	180.000000
746.759155	188.000000
746.796753	178.000000
746.834351	174.000000
746.871826	183.000000
746.909424	189.000000
746.946960	184.000000
746.984558	183.000000
747.022156	180.000000
747.059631	188.000000
747.097229	187.000000
747.134827	181.000000
747.172363	189.000000
747.209900	184.000000
747.247498	177.000000
747.285034	185.000000
747.322571	191.000000
747.360168	181.000000
747.397644	176.000000
747.435242	186.000000
747.472778	187.000000
747.510315	180.000000
747.547913	183.000000
747.585388	192.000000
747.622925	181.000000
747.660522	171.000000
747.697998	181.000000
747.735596	181.000000
747.773132	186.000000
747.810669	184.000000
747.848206	187.000000
747.885742	185.000000
747.923279	183.000000
747.960815	186.000000
747.998352	187.000000
748.035889	193.000000
748.073425	189.000000
748.110901	184.000000
748.148437	176.000000
748.185974	186.000000
748.223511	194.000000
748.261047	189.000000
748.298584	183.000000
748.336060	185.000000
748.373596	182.000000
748.411133	205.000000
748.448608	176.000000
748.486145	189.000000
748.523682	189.000000
748.561218	195.000000
748.598755	180.000000
748.636292	189.000000
748.673706	187.000000
748.711243	193.000000
748.748718	182.000000
748.786255	183.000000
748.823792	181.000000
748.861267	179.000000
748.898804	187.000000
748.936340	186.000000
748.973816	178.000000
749.011292	190.000000
749.048828	184.000000
749.086304	187.000000
749.123840	195.000000
749.161316	181.000000
749.198792	189.000000
749.236328	191.000000
749.273743	182.000000
749.311279	181.000000
749.348816	180.000000
749.386230	183.000000
749.423767	171.000000
749.461304	188.000000
749.498718	183.000000
749.536255	192.000000
749.573730	197.000000
749.611206	191.000000
749.648682	181.000000
749.686218	186.000000
749.723633	188.000000
749.761169	181.000000
749.798645	180.000000
749.836060	183.000000
749.873596	179.000000
749.911011	188.000000
749.948547	195.000000
749.986023	182.000000
750.023437	182.000000
750.060913	180.000000
750.098450	179.000000
750.135864	184.000000
750.173340	187.000000
750.210815	188.000000
750.248291	183.000000
750.285767	185.000000
750.323242	195.000000
750.360657	186.000000
750.398132	183.000000
750.435608	185.000000
750.473022	181.000000
750.510498	180.000000
750.547974	181.000000
750.585449	185.000000
750.622925	174.000000
750.660339	190.000000
750.697815	188.000000
750.735291	182.000000
750.772644	189.000000
750.810120	181.000000
750.847595	182.000000
750.885010	178.000000
750.922485	194.000000
750.959961	182.000000
750.997375	189.000000
751.034851	186.000000
751.072266	191.000000
751.109680	174.000000
751.147156	194.000000
751.184570	191.000000
751.221985	183.000000
751.259460	173.000000
751.296875	185.000000
751.334290	182.000000
751.371765	189.000000
751.409180	188.000000
751.446594	194.000000
751.484070	184.000000
751.521423	187.000000
751.558899	181.000000
751.596375	193.000000
751.633728	191.000000
751.671204	195.000000
751.708618	180.000000
751.746033	191.000000
751.783447	179.000000
751.820801	183.000000
751.858276	192.000000
751.895691	184.000000
751.933105	185.000000
751.970520	182.000000
752.007935	183.000000
752.045349	190.000000
752.082764	186.000000
752.120178	181.000000
752.157532	185.000000
752.195007	179.000000
752.232422	187.000000
752.269775	192.000000
752.307190	187.000000
752.344543	179.000000
752.382019	186.000000
752.419434	180.000000
752.456787	186.000000
752.494202	186.000000
752.531616	184.000000
752.568970	185.000000
752.606384	187.000000
752.643799	187.000000
752.681152	192.000000
752.718567	188.000000
752.755981	177.000000
752.793335	179.000000
752.830750	179.000000
752.868164	182.000000
752.905518	178.000000
752.942932	188.000000
752.980225	180.000000
753.017639	185.000000
753.055054	190.000000
753.092407	186.000000
753.129822	192.000000
753.167175	189.000000
753.204529	186.000000
753.241943	179.000000
753.279358	181.000000
753.316650	187.000000
753.354065	186.000000
753.391479	189.000000
753.428772	190.000000
753.466187	182.000000
753.503479	182.000000
753.540894	185.000000
753.578308	179.000000
753.615601	180.000000
753.653015	188.000000
753.690369	181.000000
753.727722	186.000000
753.765076	185.000000
753.802490	181.000000
753.839783	177.000000
753.877136	184.000000
753.914551	197.000000
753.951843	182.000000
753.989258	189.000000
754.026611	186.000000
754.063904	185.000000
754.101257	177.000000
754.138611	175.000000
754.175964	184.000000
754.213318	194.000000
754.250610	177.000000
754.288025	183.000000
754.325378	176.000000
754.362671	191.000000
754.400024	181.000000
754.437378	195.000000
754.474670	190.000000
754.512085	181.000000
754.549438	183.000000
754.586731	180.000000
754.624084	185.000000
754.661438	177.000000
754.698730	184.000000
754.736084	183.000000
754.773376	184.000000
754.810730	186.000000
754.848083	183.000000
754.885315	188.000000
754.922668	175.000000
754.960022	181.000000
754.997314	185.000000
755.034668	184.000000
755.072021	185.000000
755.109253	179.000000
755.146606	189.000000
755.183960	188.000000
755.221252	195.000000
755.258545	189.000000
755.295898	194.000000
755.333191	194.000000
755.370544	183.000000
755.407776	189.000000
755.445129	185.000000
755.482422	185.000000
755.519714	181.000000
755.557068	181.000000
755.594360	180.000000
755.631653	193.000000
755.668945	192.000000
755.706299	191.000000
755.743530	203.000000
755.780884	193.000000
755.818176	192.000000
755.855408	193.000000
755.892761	189.000000
755.930054	184.000000
755.967346	191.000000
756.004639	190.000000
756.041870	190.000000
756.079224	191.000000
756.116516	187.000000
756.153748	191.000000
756.191040	198.000000
756.228394	191.000000
756.265625	185.000000
756.302917	190.000000
756.340210	189.000000
756.377441	194.000000
756.414795	196.000000
756.452087	185.000000
756.489319	184.000000
756.526611	193.000000
756.563843	189.000000
756.601135	199.000000
756.638428	199.000000
756.675659	190.000000
756.712952	196.000000
756.750244	194.000000
756.787476	192.000000
756.824768	198.000000
756.862061	193.000000
756.899292	239.000000
756.936584	193.000000
756.973816	199.000000
757.011047	201.000000
757.048340	187.000000
757.085632	196.000000
757.122864	207.000000
757.160156	191.000000
757.197327	192.000000
757.234619	195.000000
757.271912	188.000000
757.309082	197.000000
757.346375	193.000000
757.383667	198.000000
757.420837	199.000000
757.458130	195.000000
757.495422	193.000000
757.532593	200.000000
757.569885	191.000000
757.607117	193.000000
757.644348	199.000000
757.681580	209.000000
757.718811	186.000000
757.756042	198.000000
757.793335	197.000000
757.830505	202.000000
757.867798	194.000000
757.905029	191.000000
757.942200	201.000000
757.979492	193.000000
758.016724	198.000000
758.053894	194.000000
758.091187	216.000000
758.128418	196.000000
758.165588	198.000000
758.202820	204.000000
758.240112	204.000000
758.277283	204.000000
758.314514	200.000000
758.351685	193.000000
758.388916	213.000000
758.426147	205.000000
758.463379	210.000000
758.500610	201.000000
758.537842	207.000000
758.575012	206.000000
758.612244	199.000000
758.649475	208.000000
758.686646	191.000000
758.723877	205.000000
758.761108	210.000000
758.798279	197.000000
758.835510	205.000000
758.872742	207.000000
758.909851	204.000000
758.947083	202.000000
758.984253	207.000000
759.021484	205.000000
759.058716	203.000000
759.095886	206.000000
759.133057	203.000000
759.170288	204.000000
759.207458	204.000000
759.244690	215.000000
759.281860	210.000000
759.319031	203.000000
759.356262	204.000000
759.393433	201.000000
759.430603	205.000000
759.467773	204.000000
759.505005	214.000000
759.542175	214.000000
759.579346	210.000000
759.616516	207.000000
759.653687	211.000000
759.690918	201.000000
759.728027	202.000000
759.765259	210.000000
759.802429	210.000000
759.839539	205.000000
759.876770	214.000000
759.913940	222.000000
759.951111	206.000000
759.988281	209.000000
760.025452	201.000000
760.062561	205.000000
760.099792	220.000000
760.136963	213.000000
760.174072	202.000000
760.211243	203.000000
760.248413	205.000000
760.285583	206.000000
760.322754	219.000000
760.359863	218.000000
760.397034	215.000000
760.434204	212.000000
760.471375	210.000000
760.508545	208.000000
760.545715	206.000000
760.582825	206.000000
760.619995	216.000000
760.657166	208.000000
760.694275	219.000000
760.731445	211.000000
760.768555	215.000000
760.805664	217.000000
760.842834	211.000000
760.879944	217.000000
760.917114	216.000000
760.954285	210.000000
760.991394	208.000000
761.028564	224.000000
761.065674	215.000000
761.102783	214.000000
761.139954	219.000000
761.177124	217.000000
761.214172	223.000000
761.251343	217.000000
761.288452	214.000000
761.325562	221.000000
761.362732	218.000000
761.399841	217.000000
761.436951	222.000000
761.474121	217.000000
761.511169	218.000000
761.548340	222.000000
761.585449	227.000000
761.622559	225.000000
761.659668	226.000000
761.696838	225.000000
761.733887	225.000000
761.771057	221.000000
761.808167	223.000000
761.845276	229.000000
761.882385	237.000000
761.919434	227.000000
761.956604	244.000000
761.993713	223.000000
762.030762	233.000000
762.067871	227.000000
762.105042	235.000000
762.142090	234.000000
762.179199	230.000000
762.216309	232.000000
762.253418	244.000000
762.290527	238.000000
762.327637	240.000000
762.364685	225.000000
762.401794	238.000000
762.438904	236.000000
762.475952	237.000000
762.513062	229.000000
762.550110	231.000000
762.587219	241.000000
762.624329	240.000000
762.661377	237.000000
762.698486	238.000000
762.735596	237.000000
762.772644	233.000000
762.809753	230.000000
762.846863	238.000000
762.883911	241.000000
762.921021	244.000000
762.958069	237.000000
762.995117	246.000000
763.032227	244.000000
763.069336	242.000000
763.106323	235.000000
763.143433	233.000000
763.180481	244.000000
763.217590	247.000000
763.254639	244.000000
763.291687	240.000000
763.328735	248.000000
763.365845	245.000000
763.402893	240.000000
763.439941	244.000000
763.477051	248.000000
763.514038	251.000000
763.551147	242.000000
763.588196	247.000000
763.625244	244.000000
763.662292	254.000000
763.699402	257.000000
763.736389	246.000000
763.773499	255.000000
763.810486	249.000000
763.847534	250.000000
763.884644	260.000000
763.921631	248.000000
763.958679	259.000000
763.995728	261.000000
764.032776	264.000000
764.069824	254.000000
764.106873	256.000000
764.143860	264.000000
764.180969	247.000000
764.218018	255.000000
764.255005	249.000000
764.292053	263.000000
764.329102	267.000000
764.366089	269.000000
764.403137	265.000000
764.440125	263.000000
764.477173	266.000000
764.514221	268.000000
764.551208	269.000000
764.588257	258.000000
764.625305	262.000000
764.662292	275.000000
764.699341	275.000000
764.736389	270.000000
764.773376	282.000000
764.810425	273.000000
764.847473	276.000000
764.884399	276.000000
764.921448	285.000000
764.958435	287.000000
764.995483	280.000000
765.032532	289.000000
765.069458	271.000000
765.106506	275.000000
765.143555	268.000000
765.180481	277.000000
765.217529	283.000000
765.254578	269.000000
765.291504	281.000000
765.328552	286.000000
765.365540	278.000000
765.402527	295.000000
765.439575	285.000000
765.476501	280.000000
765.513550	279.000000
765.550537	280.000000
765.587463	285.000000
765.624512	281.000000
765.661499	268.000000
765.698486	282.000000
765.735474	280.000000
765.772461	281.000000
765.809448	293.000000
765.846436	291.000000
765.883423	293.000000
765.920410	287.000000
765.957397	290.000000
765.994385	293.000000
766.031311	306.000000
766.068359	288.000000
766.105286	299.000000
766.142273	300.000000
766.179260	295.000000
766.216187	287.000000
766.253174	289.000000
766.290161	291.000000
766.327148	297.000000
766.364136	293.000000
766.401123	316.000000
766.438049	290.000000
766.475037	312.000000
766.512024	304.000000
766.548950	319.000000
766.585937	316.000000
766.622864	313.000000
766.659790	313.000000
766.696777	309.000000
766.733704	313.000000
766.770691	308.000000
766.807678	322.000000
766.844604	317.000000
766.881531	322.000000
766.918518	329.000000
766.955444	326.000000
766.992432	322.000000
767.029358	330.000000
767.066284	335.000000
767.103271	328.000000
767.140198	361.000000
767.177124	343.000000
767.214050	338.000000
767.251038	339.000000
767.287964	337.000000
767.324890	337.000000
767.361816	343.000000
767.398743	342.000000
767.435730	342.000000
767.472595	347.000000
767.509583	349.000000
767.546509	346.000000
767.583374	344.000000
767.620361	338.000000
767.657288	349.000000
767.694214	344.000000
767.731140	351.000000
767.768066	358.000000
767.804993	355.000000
767.841919	344.000000
767.878845	347.000000
767.915710	362.000000
767.952698	349.000000
767.989563	358.000000
768.026489	353.000000
768.063416	354.000000
768.100281	350.000000
768.137207	366.000000
768.174133	364.000000
768.211060	363.000000
768.247986	365.000000
768.284912	360.000000
768.321777	370.000000
768.358704	362.000000
768.395630	357.000000
768.432495	357.000000
768.469421	363.000000
768.506348	373.000000
768.543152	380.000000
768.580078	376.000000
768.616943	367.000000
768.653870	383.000000
768.690796	375.000000
768.727661	377.000000
768.764587	381.000000
768.801453	372.000000
768.838318	379.000000
768.875244	387.000000
768.912109	399.000000
768.948975	381.000000
768.985901	387.000000
769.022766	389.000000
769.059631	390.000000
769.096558	393.000000
769.133362	396.000000
769.170288	397.000000
769.207214	388.000000
769.244019	402.000000
769.280945	399.000000
769.317810	406.000000
769.354675	407.000000
769.391541	420.000000
769.428406	409.000000
769.465271	413.000000
769.502136	413.000000
769.539062	416.000000
769.575867	413.000000
769.612732	419.000000
769.649597	420.000000
769.686462	417.000000
769.723328	421.000000
769.760193	417.000000
769.797058	433.000000
769.833923	429.000000
769.870728	432.000000
769.907593	425.000000
769.944519	426.000000
769.981323	425.000000
770.018188	437.000000
770.055054	433.000000
770.091858	437.000000
770.128723	438.000000
770.165588	444.000000
770.202393	426.000000
770.239258	445.000000
770.276062	435.000000
770.312927	445.000000
770.349792	449.000000
770.386597	442.000000
770.423462	449.000000
770.460327	458.000000
770.497131	446.000000
770.533997	442.000000
770.570862	457.000000
770.607605	459.000000
770.644470	456.000000
770.681335	458.000000
770.718140	455.000000
770.754944	457.000000
770.791809	457.000000
770.828613	461.000000
770.865479	455.000000
770.902222	469.000000
770.939087	458.000000
770.975952	451.000000
771.012695	455.000000
771.049561	470.000000
771.086365	462.000000
771.123169	461.000000
771.159973	460.000000
771.196838	471.000000
771.233582	473.000000
771.270447	477.000000
771.307251	481.000000
771.344055	474.000000
771.380859	476.000000
771.417664	469.000000
771.454468	487.000000
771.491272	482.000000
771.528076	484.000000
771.564880	481.000000
771.601685	487.000000
771.638428	482.000000
771.675293	489.000000
771.712097	475.000000
771.748840	498.000000
771.785645	474.000000
771.822449	485.000000
771.859253	494.000000
771.896057	495.000000
771.932861	510.000000
771.969604	504.000000
772.006409	493.000000
772.043213	505.000000
772.079956	506.000000
772.116760	505.000000
772.153503	505.000000
772.190308	524.000000
772.227112	507.000000
772.263855	510.000000
772.300659	516.000000
772.337463	516.000000
772.374207	520.000000
772.411011	522.000000
772.447754	524.000000
772.484497	533.000000
772.521301	519.000000
772.558105	516.000000
772.594849	532.000000
772.631592	543.000000
772.668396	538.000000
772.705139	543.000000
772.741882	538.000000
772.778625	549.000000
772.815430	555.000000
772.852173	557.000000
772.888916	572.000000
772.925720	564.000000
772.962463	574.000000
772.999207	565.000000
773.035950	578.000000
773.072754	592.000000
773.109436	578.000000
773.146240	575.000000
773.182922	572.000000
773.219727	571.000000
773.256470	567.000000
773.293152	562.000000
773.329956	580.000000
773.366699	588.000000
773.403381	578.000000
773.440186	572.000000
773.476929	590.000000
773.513611	593.000000
773.550354	601.000000
773.587158	598.000000
773.623840	585.000000
773.660583	588.000000
773.697327	602.000000
773.734009	592.000000
773.770813	609.000000
773.807495	611.000000
773.844238	597.000000
773.880981	611.000000
773.917664	601.000000
773.954407	614.000000
773.991150	627.000000
774.027832	626.000000
774.064575	625.000000
774.101318	629.000000
774.138000	629.000000
774.174744	621.000000
774.211487	642.000000
774.248108	628.000000
774.284851	640.000000
774.321594	628.000000
774.358276	626.000000
774.395020	635.000000
774.431702	660.000000
774.468384	657.000000
774.505127	650.000000
774.541809	655.000000
774.578491	650.000000
774.615234	647.000000
774.651917	662.000000
774.688599	663.000000
774.725342	686.000000
774.762024	670.000000
774.798706	650.000000
774.835449	651.000000
774.872070	665.000000
774.908813	680.000000
774.945496	701.000000
774.982178	687.000000
775.018860	681.000000
775.055542	664.000000
775.092224	681.000000
775.128967	685.000000
775.165588	705.000000
775.202271	698.000000
775.239014	691.000000
775.275635	690.000000
775.312317	680.000000
775.349060	707.000000
775.385681	722.000000
775.422363	716.000000
775.459045	703.000000
775.495667	699.000000
775.532410	706.000000
775.569092	699.000000
775.605713	727.000000
775.642395	733.000000
775.679016	728.000000
775.715698	714.000000
775.752380	701.000000
775.789001	711.000000
775.825684	715.000000
775.862366	724.000000
775.898987	740.000000
775.935669	713.000000
775.972351	721.000000
776.008972	722.000000
776.045654	736.000000
776.082336	741.000000
776.118958	736.000000
776.155640	730.000000
776.192322	732.000000
776.228882	725.000000
776.265564	739.000000
776.302185	747.000000
776.338867	748.000000
776.375488	747.000000
776.412109	749.000000
776.448792	732.000000
776.485413	761.000000
776.522034	752.000000
776.558716	756.000000
776.595337	759.000000
776.631958	753.000000
776.668579	749.000000
776.705261	757.000000
776.741882	756.000000
776.778503	760.000000
776.815186	759.000000
776.851746	759.000000
776.888367	748.000000
776.924988	753.000000
776.961609	756.000000
776.998291	764.000000
777.034851	756.000000
777.071472	781.000000
777.108154	759.000000
777.144714	769.000000
777.181335	769.000000
777.218018	779.000000
777.254578	782.000000
777.291199	794.000000
777.327759	789.000000
777.364380	791.000000
777.401062	805.000000
777.437622	822.000000
777.474243	811.000000
777.510864	829.000000
777.547424	827.000000
777.584045	826.000000
777.620667	845.000000
777.657227	835.000000
777.693848	832.000000
777.730469	857.000000
777.767029	835.000000
777.803650	848.000000
777.840271	834.000000
777.876831	839.000000
777.913452	849.000000
777.950012	835.000000
777.986633	845.000000
778.023193	841.000000
778.059753	839.000000
778.096375	825.000000
778.132996	847.000000
778.169556	835.000000
778.206116	845.000000
778.242737	844.000000
778.279297	848.000000
778.315857	849.000000
778.352478	873.000000
778.389038	880.000000
778.425598	869.000000
778.462219	891.000000
778.498718	885.000000
778.535339	886.000000
778.571838	892.000000
778.608459	902.000000
778.645020	879.000000
778.681580	899.000000
778.718140	898.000000
778.754761	889.000000
778.791260	888.000000
778.827881	893.000000
778.864441	899.000000
778.900940	907.000000
778.937561	905.000000
778.974121	906.000000
779.010620	896.000000
779.047241	902.000000
779.083801	920.000000
779.120300	924.000000
779.156860	944.000000
779.193359	943.000000
779.229980	955.000000
779.266541	965.000000
779.303040	955.000000
779.339600	946.000000
779.376160	960.000000
779.412659	950.000000
779.449219	970.000000
779.485779	968.000000
779.522278	961.000000
779.558838	965.000000
779.595398	956.000000
779.631897	958.000000
779.668457	962.000000
779.705017	975.000000
779.741516	967.000000
779.778076	941.000000
779.814575	951.000000
779.851074	960.000000
779.887634	973.000000
779.924133	979.000000
779.960693	968.000000
779.997253	971.000000
780.033691	962.000000
780.070251	956.000000
780.106812	1000.000000
780.143250	998.000000
780.179810	993.000000
780.216370	991.000000
780.252808	1005.000000
780.289368	1010.000000
780.325867	1015.000000
780.362366	1039.000000
780.398865	1046.000000
780.435364	1030.000000
780.471863	1035.000000
780.508423	1023.000000
780.544861	1038.000000
780.581421	1062.000000
780.617920	1043.000000
780.654419	1045.000000
780.690918	1046.000000
780.727417	1023.000000
780.763916	1032.000000
780.800415	1029.000000
780.836914	1017.000000
780.873352	1057.000000
780.909912	1041.000000
780.946411	1038.000000
780.982849	1021.000000
781.019348	1041.000000
781.055786	1012.000000
781.092346	1013.000000
781.128845	1019.000000
781.165283	995.000000
781.201782	985.000000
781.238281	968.000000
781.274719	955.000000
781.311218	942.000000
781.347717	937.000000
781.384155	902.000000
781.420654	869.000000
781.457092	849.000000
781.493591	829.000000
781.530090	801.000000
781.566528	777.000000
781.602966	742.000000
781.639465	717.000000
781.675903	679.000000
781.712402	652.000000
781.748901	640.000000
781.785278	598.000000
781.821777	585.000000
781.858276	549.000000
781.894714	530.000000
781.931152	493.000000
781.967651	499.000000
782.004089	456.000000
782.040527	456.000000
782.076965	431.000000
782.113403	411.000000
782.149902	392.000000
782.186340	378.000000
782.222778	376.000000
782.259277	346.000000
782.295654	339.000000
782.332092	341.000000
782.368591	334.000000
782.404968	339.000000
782.441467	354.000000
782.477905	364.000000
782.514282	375.000000
782.550781	404.000000
782.587219	428.000000
782.623596	460.000000
782.660095	506.000000
782.696472	534.000000
782.732910	583.000000
782.769348	633.000000
782.805786	688.000000
782.842224	740.000000
782.878662	806.000000
782.915039	853.000000
782.951477	911.000000
782.987915	936.000000
783.024292	981.000000
783.060730	1010.000000
783.097168	1035.000000
783.133545	1057.000000
783.169983	1088.000000
783.206421	1085.000000
783.242798	1105.000000
783.279236	1103.000000
783.315613	1104.000000
783.352051	1098.000000
783.388489	1120.000000
783.424866	1107.000000
783.461304	1112.000000
783.497681	1118.000000
783.534058	1132.000000
783.570496	1134.000000
783.606934	1151.000000
783.643250	1153.000000
783.679687	1174.000000
783.716125	1149.000000
783.752441	1163.000000
783.788879	1197.000000
783.825317	1205.000000
783.861633	1202.000000
783.898071	1205.000000
783.934448	1210.000000
783.970825	1227.000000
784.007263	1219.000000
784.043579	1237.000000
784.080017	1249.000000
784.116394	1241.000000
784.152710	1236.000000
784.189148	1235.000000
784.225525	1239.000000
784.261902	1234.000000
784.298279	1248.000000
784.334656	1238.000000
784.371033	1208.000000
784.407410	1217.000000
784.443787	1191.000000
784.480164	1191.000000
784.516541	1194.000000
784.552856	1200.000000
784.589233	1189.000000
784.625610	1172.000000
784.661987	1195.000000
784.698364	1202.000000
784.734741	1215.000000
784.771057	1222.000000
784.807434	1233.000000
784.843811	1232.000000
784.880127	1213.000000
784.916504	1229.000000
784.952881	1267.000000
784.989197	1279.000000
785.025574	1305.000000
785.061951	1304.000000
785.098267	1323.000000
785.134644	1308.000000
785.170959	1331.000000
785.207275	1367.000000
785.243652	1385.000000
785.279968	1379.000000
785.316345	1348.000000
785.352722	1320.000000
785.388977	1320.000000
785.425354	1326.000000
785.461731	1310.000000
785.498047	1301.000000
785.534363	1265.000000
785.570679	1235.000000
785.606995	1207.000000
785.643372	1187.000000
785.679687	1202.000000
785.716003	1207.000000
785.752380	1171.000000
785.788635	1172.000000
785.825012	1146.000000
785.861328	1161.000000
785.897644	1191.000000
785.933960	1233.000000
785.970337	1265.000000
786.006592	1277.000000
786.042908	1282.000000
786.079285	1288.000000
786.115540	1328.000000
786.151855	1382.000000
786.188171	1420.000000
786.224487	1469.000000
786.260803	1463.000000
786.297119	1467.000000
786.333435	1480.000000
786.369751	1495.000000
786.406006	1520.000000
786.442322	1502.000000
786.478638	1452.000000
786.514954	1424.000000
786.551270	1376.000000
786.587585	1356.000000
786.623840	1327.000000
786.660156	1320.000000
786.696472	1284.000000
786.732727	1246.000000
786.769043	1227.000000
786.805298	1197.000000
786.841614	1183.000000
786.877930	1226.000000
786.914124	1232.000000
786.950439	1254.000000
786.986755	1250.000000
787.023010	1260.000000
787.059326	1268.000000
787.095642	1300.000000
787.131836	1345.000000
787.168152	1376.000000
787.204468	1373.000000
787.240723	1403.000000
787.276978	1401.000000
787.313293	1434.000000
787.349548	1460.000000
787.385803	1473.000000
787.422058	1500.000000
787.458313	1479.000000
787.494629	1467.000000
787.530823	1444.000000
787.567139	1438.000000
787.603455	1440.000000
787.639648	1439.000000
787.675903	1421.000000
787.712219	1386.000000
787.748413	1359.000000
787.784729	1356.000000
787.820984	1326.000000
787.857178	1340.000000
787.893494	1313.000000
787.929749	1308.000000
787.965942	1309.000000
788.002258	1313.000000
788.038452	1320.000000
788.074707	1317.000000
788.110962	1338.000000
788.147217	1346.000000
788.183472	1344.000000
788.219727	1327.000000
788.255920	1325.000000
788.292175	1333.000000
788.328430	1358.000000
788.364624	1363.000000
788.400879	1363.000000
788.437134	1373.000000
788.473328	1336.000000
788.509583	1351.000000
788.545837	1347.000000
788.582031	1360.000000
788.618286	1362.000000
788.654480	1383.000000
788.690735	1385.000000
788.726990	1401.000000
788.763184	1395.000000
788.799377	1421.000000
788.835632	1427.000000
788.871826	1449.000000
788.908081	1437.000000
788.944336	1417.000000
788.980469	1433.000000
789.016724	1432.000000
789.052979	1429.000000
789.089111	1412.000000
789.125366	1419.000000
789.161621	1393.000000
789.197754	1377.000000
789.234009	1349.000000
789.270142	1339.000000
789.306396	1361.000000
789.342590	1354.000000
789.378784	1345.000000
789.414978	1323.000000
789.451233	1320.000000
789.487366	1294.000000
789.523621	1318.000000
789.559814	1327.000000
789.595947	1341.000000
789.632202	1350.000000
789.668335	1352.000000
789.704529	1343.000000
789.740784	1372.000000
789.776917	1376.000000
789.813110	1413.000000
789.849304	1437.000000
789.885498	1423.000000
789.921692	1420.000000
789.957886	1421.000000
789.994019	1410.000000
790.030212	1431.000000
790.066406	1463.000000
790.102539	1455.000000
790.138733	1445.000000
790.174927	1404.000000
790.211060	1396.000000
790.247253	1393.000000
790.283386	1414.000000
790.319580	1429.000000
790.355774	1400.000000
790.391907	1305.000000
790.428101	1213.000000
790.464294	1060.000000
790.500427	920.000000
790.536621	765.000000
790.572754	627.000000
790.608887	572.000000
790.645081	616.000000
790.681274	783.000000
790.717346	1017.000000
790.753540	1229.000000
790.789734	1383.000000
790.825867	1425.000000
790.862000	1433.000000
790.898132	1423.000000
790.934265	1408.000000
790.970459	1406.000000
791.006592	1432.000000
791.042725	1431.000000
791.078918	1413.000000
791.114990	1379.000000
791.151184	1355.000000
791.187317	1361.000000
791.223389	1368.000000
791.259583	1385.000000
791.295715	1412.000000
791.331848	1413.000000
791.367981	1410.000000
791.404114	1392.000000
791.440247	1412.000000
791.476379	1440.000000
791.512451	1458.000000
791.548584	1485.000000
791.584778	1485.000000
791.620850	1489.000000
791.656982	1479.000000
791.693115	1461.000000
791.729187	1484.000000
791.765381	1493.000000
791.801514	1512.000000
791.837585	1483.000000
791.873718	1489.000000
791.909851	1490.000000
791.945923	1508.000000
791.982056	1501.000000
792.018188	1536.000000
792.054260	1549.000000
792.090393	1539.000000
792.126465	1505.000000
792.162598	1502.000000
792.198669	1499.000000
792.234741	1523.000000
792.270874	1519.000000
792.307007	1507.000000
792.343079	1507.000000
792.379150	1491.000000
792.415283	1470.000000
792.451355	1481.000000
792.487488	1478.000000
792.523560	1486.000000
792.559631	1475.000000
792.595764	1437.000000
792.631836	1432.000000
792.667908	1447.000000
792.703979	1439.000000
792.740051	1444.000000
792.776184	1461.000000
792.812256	1444.000000
792.848328	1444.000000
792.884399	1420.000000
792.920471	1433.000000
792.956543	1474.000000
792.992615	1492.000000
793.028748	1470.000000
793.064758	1462.000000
793.100830	1464.000000
793.136963	1464.000000
793.172974	1474.000000
793.209045	1467.000000
793.245178	1477.000000
793.281189	1467.000000
793.317261	1467.000000
793.353271	1450.000000
793.389404	1455.000000
793.425476	1466.000000
793.461487	1459.000000
793.497559	1501.000000
793.533630	1487.000000
793.569641	1437.000000
793.605713	1426.000000
793.641785	1420.000000
793.677795	1431.000000
793.713867	1440.000000
793.749878	1459.000000
793.785950	1470.000000
793.822021	1478.000000
793.858032	1430.000000
793.894104	1447.000000
793.930176	1455.000000
793.966187	1491.000000
794.002258	1469.000000
794.038269	1458.000000
794.074280	1448.000000
794.110352	1462.000000
794.146423	1441.000000
794.182373	1464.000000
794.218445	1480.000000
794.254517	1488.000000
794.290466	1461.000000
794.326538	1447.000000
794.362549	1429.000000
794.398560	1444.000000
794.434631	1419.000000
794.470581	1393.000000
794.506653	1379.000000
794.542664	1355.000000
794.578674	1356.000000
794.614685	1340.000000
794.650757	1353.000000
794.686707	1376.000000
794.722778	1372.000000
794.758789	1382.000000
794.794739	1396.000000
794.830811	1393.000000
794.866821	1374.000000
794.902771	1391.000000
794.938843	1394.000000
794.974792	1405.000000
795.010803	1425.000000
795.046814	1430.000000
795.082825	1385.000000
795.118835	1408.000000
795.154846	1385.000000
795.190796	1400.000000
795.226807	1377.000000
795.262817	1388.000000
795.298767	1363.000000
795.334778	1355.000000
795.370850	1357.000000
795.406799	1332.000000
795.442810	1336.000000
795.478821	1352.000000
795.514709	1333.000000
795.550720	1331.000000
795.586670	1281.000000
795.622681	1299.000000
795.658691	1297.000000
795.694641	1299.000000
795.730652	1307.000000
795.766663	1314.000000
795.802551	1295.000000
795.838562	1293.000000
795.874573	1290.000000
795.910522	1305.000000
795.946472	1295.000000
795.982483	1301.000000
796.018433	1296.000000
796.054382	1280.000000
796.090393	1291.000000
796.126282	1271.000000
796.162292	1292.000000
796.198242	1324.000000
796.234192	1321.000000
796.270203	1296.000000
796.306091	1297.000000
796.342041	1307.000000
796.378052	1312.000000
796.413940	1318.000000
796.449951	1329.000000
796.485901	1291.000000
796.521790	1282.000000
796.557800	1281.000000
796.593689	1294.000000
796.629639	1301.000000
796.665649	1309.000000
796.701599	1328.000000
796.737488	1310.000000
796.773437	1298.000000
796.809387	1298.000000
796.845337	1305.000000
796.881287	1332.000000
796.917175	1340.000000
796.953125	1340.000000
796.989075	1320.000000
797.024963	1329.000000
797.060913	1291.000000
797.096863	1307.000000
797.132751	1322.000000
797.168701	1313.000000
797.204590	1298.000000
797.240540	1271.000000
797.276489	1252.000000
797.312439	1236.000000
797.348328	1264.000000
797.384277	1265.000000
797.420166	1277.000000
797.456055	1275.000000
797.492004	1258.000000
797.527893	1243.000000
797.563843	1249.000000
797.599731	1245.000000
797.635620	1276.000000
797.671570	1263.000000
797.707520	1274.000000
797.743347	1258.000000
797.779297	1244.000000
797.815125	1247.000000
797.851074	1278.000000
797.887024	1285.000000
797.922913	1295.000000
797.958801	1285.000000
797.994690	1248.000000
798.030579	1235.000000
798.066467	1265.000000
798.102356	1259.000000
798.138245	1281.000000
798.174133	1250.000000
798.210083	1251.000000
798.245911	1246.000000
798.281799	1244.000000
798.317749	1238.000000
798.353577	1260.000000
798.389465	1243.000000
798.425293	1246.000000
798.461243	1229.000000
798.497131	1220.000000
798.532959	1213.000000
798.568848	1255.000000
798.604736	1255.000000
798.640564	1235.000000
798.676453	1236.000000
798.712402	1227.000000
798.748230	1216.000000
798.784119	1210.000000
798.820007	1224.000000
798.855835	1245.000000
798.891724	1229.000000
798.927551	1222.000000
798.963379	1212.000000
798.999268	1229.000000
799.035095	1213.000000
799.070984	1218.000000
799.106873	1234.000000
799.142700	1235.000000
799.178528	1204.000000
799.214417	1201.000000
799.250244	1211.000000
799.286133	1217.000000
799.321960	1208.000000
799.357788	1202.000000
799.393677	1212.000000
799.429504	1209.000000
799.465332	1199.000000
799.501221	1193.000000
799.537048	1209.000000
799.572876	1216.000000
799.608704	1202.000000
799.644531	1196.000000
799.680359	1196.000000
799.716248	1198.000000
799.752014	1223.000000
799.787903	1211.000000
799.823730	1205.000000
799.859558	1210.000000
799.895386	1195.000000
799.931213	1158.000000
799.967041	1154.000000
800.002869	1151.000000
800.038696	1184.000000
800.074463	1182.000000
800.110352	1165.000000
800.146179	1158.000000
800.181946	1143.000000
800.217773	1153.000000
800.253540	1148.000000
800.289429	1159.000000
800.325256	1154.000000
800.361023	1123.000000
800.396851	1132.000000
800.432678	1119.000000
800.468445	1113.000000
800.504272	1135.000000
800.540100	1129.000000
800.575867	1133.000000
800.611694	1129.000000
800.647461	1105.000000
800.683289	1100.000000
800.719116	1100.000000
800.754883	1104.000000
800.790649	1080.000000
800.826477	1080.000000
800.862244	1095.000000
800.898071	1063.000000
800.933838	1072.000000
800.969604	1072.000000
801.005432	1077.000000
801.041199	1085.000000
801.076965	1073.000000
801.112793	1054.000000
801.148560	1038.000000
801.184326	1034.000000
801.220154	1027.000000
801.255859	1031.000000
801.291687	1038.000000
801.327454	1029.000000
801.363281	1029.000000
801.398987	1013.000000
801.434814	1013.000000
801.470520	1015.000000
801.506287	1006.000000
801.542114	990.000000
801.577820	993.000000
801.613647	985.000000
801.649414	987.000000
801.685120	991.000000
801.720886	995.000000
801.756714	982.000000
801.792419	997.000000
801.828186	983.000000
801.863892	978.000000
801.899719	979.000000
801.935486	979.000000
801.971252	977.000000
802.006958	981.000000
802.042725	968.000000
802.078430	969.000000
802.114197	956.000000
802.149963	972.000000
802.185669	966.000000
802.221436	986.000000
802.257202	986.000000
802.292908	963.000000
802.328674	973.000000
802.364441	950.000000
802.400146	951.000000
802.435913	962.000000
802.471558	957.000000
802.507324	951.000000
802.543091	956.000000
802.578796	951.000000
802.614502	957.000000
802.650269	968.000000
802.685974	945.000000
802.721741	958.000000
802.757446	964.000000
802.793152	955.000000
802.828918	943.000000
802.864624	944.000000
802.900330	947.000000
802.936035	941.000000
802.971802	955.000000
803.007446	936.000000
803.043213	926.000000
803.078857	932.000000
803.114624	907.000000
803.150330	912.000000
803.185974	906.000000
803.221741	905.000000
803.257446	901.000000
803.293152	903.000000
803.328857	889.000000
803.364563	886.000000
803.400208	891.000000
803.435974	896.000000
803.471680	892.000000
803.507324	878.000000
803.543030	887.000000
803.578735	869.000000
803.614441	870.000000
803.650146	873.000000
803.685791	877.000000
803.721497	877.000000
803.757202	856.000000
803.792847	863.000000
803.828552	861.000000
803.864258	853.000000
803.899902	850.000000
803.935608	832.000000
803.971313	838.000000
804.006958	829.000000
804.042664	829.000000
804.078308	832.000000
804.113953	832.000000
804.149658	838.000000
804.185364	845.000000
804.221008	844.000000
804.256714	827.000000
804.292297	813.000000
804.328003	801.000000
804.363708	804.000000
804.399292	811.000000
804.434998	806.000000
804.470703	797.000000
804.506287	791.000000
804.541992	789.000000
804.577637	794.000000
804.613281	791.000000
804.648926	799.000000
804.684570	805.000000
804.720215	789.000000
804.755920	772.000000
804.791565	781.000000
804.827209	780.000000
804.862854	773.000000
804.898437	779.000000
804.934143	794.000000
804.969788	784.000000
805.005371	780.000000
805.041077	777.000000
805.076721	783.000000
805.112305	776.000000
805.147949	767.000000
805.183655	775.000000
805.219238	777.000000
805.254883	764.000000
805.290466	763.000000
805.326111	758.000000
805.361755	763.000000
805.397400	777.000000
805.432983	775.000000
805.468628	772.000000
805.504211	769.000000
805.539856	755.000000
805.575500	769.000000
805.611084	761.000000
805.646729	757.000000
805.682373	764.000000
805.717957	754.000000
805.753601	757.000000
805.789246	741.000000
805.824768	763.000000
805.860413	769.000000
805.895996	752.000000
805.931641	748.000000
805.967224	744.000000
806.002869	739.000000
806.038452	739.000000
806.074036	746.000000
806.109619	731.000000
806.145264	721.000000
806.180847	743.000000
806.216431	722.000000
806.252014	721.000000
806.287659	724.000000
806.323181	738.000000
806.358826	725.000000
806.394409	707.000000
806.429993	710.000000
806.465576	717.000000
806.501160	699.000000
806.536743	694.000000
806.572327	711.000000
806.607910	713.000000
806.643494	711.000000
806.679077	700.000000
806.714661	697.000000
806.750244	689.000000
806.785828	675.000000
806.821350	685.000000
806.856934	693.000000
806.892517	672.000000
806.928101	673.000000
806.963684	671.000000
806.999268	681.000000
807.034790	656.000000
807.070374	664.000000
807.105896	663.000000
807.141479	650.000000
807.177063	659.000000
807.212585	642.000000
807.248169	649.000000
807.283752	650.000000
807.319275	647.000000
807.354858	649.000000
807.390381	646.000000
807.425903	644.000000
807.461487	643.000000
807.497070	634.000000
807.532593	641.000000
807.568115	624.000000
807.603699	638.000000
807.639221	625.000000
807.674744	627.000000
807.710266	636.000000
807.745850	630.000000
807.781372	620.000000
807.816895	625.000000
807.852417	625.000000
807.888000	624.000000
807.923523	621.000000
807.959045	609.000000
807.994629	609.000000
808.030090	609.000000
808.065613	603.000000
808.101135	613.000000
808.136658	609.000000
808.172241	606.000000
808.207764	613.000000
808.243225	605.000000
808.278809	593.000000
808.314270	608.000000
808.349792	594.000000
808.385315	589.000000
808.420837	600.000000
808.456360	601.000000
808.491882	597.000000
808.527344	599.000000
808.562866	603.000000
808.598389	594.000000
808.633850	591.000000
808.669434	575.000000
808.704895	577.000000
808.740417	582.000000
808.775940	579.000000
808.811462	575.000000
808.846924	567.000000
808.882385	568.000000
808.917847	572.000000
808.953369	563.000000
808.988892	568.000000
809.024353	561.000000
809.059875	569.000000
809.095398	557.000000
809.130798	555.000000
809.166321	550.000000
809.201843	549.000000
809.237305	543.000000
809.272766	558.000000
809.308228	542.000000
809.343750	542.000000
809.379211	545.000000
809.414734	546.000000
809.450134	551.000000
809.485657	529.000000
809.521118	542.000000
809.556580	545.000000
809.592102	528.000000
809.627502	527.000000
809.663025	515.000000
809.698486	523.000000
809.733887	519.000000
809.769409	520.000000
809.804871	509.000000
809.840271	515.000000
809.875793	506.000000
809.911194	516.000000
809.946655	504.000000
809.982178	508.000000
810.017639	512.000000
810.053040	506.000000
810.088501	497.000000
810.123901	510.000000
810.159424	504.000000
810.194885	494.000000
810.230286	499.000000
810.265747	495.000000
810.301208	490.000000
810.336609	490.000000
810.372070	488.000000
810.407532	490.000000
810.442932	485.000000
810.478394	490.000000
810.513794	490.000000
810.549255	486.000000
810.584717	485.000000
810.620117	481.000000
810.655518	480.000000
810.690979	486.000000
810.726379	476.000000
810.761841	476.000000
810.797302	472.000000
810.832642	461.000000
810.868103	480.000000
810.903564	460.000000
810.938904	476.000000
810.974365	466.000000
811.009827	470.000000
811.045166	457.000000
811.080627	453.000000
811.115967	460.000000
811.151428	467.000000
811.186829	451.000000
811.222229	459.000000
811.257629	446.000000
811.293091	459.000000
811.328430	458.000000
811.363892	451.000000
811.399292	450.000000
811.434631	445.000000
811.470093	449.000000
811.505493	451.000000
811.540833	448.000000
811.576294	446.000000
811.611694	440.000000
811.647034	436.000000
811.682434	439.000000
811.717773	449.000000
811.753235	443.000000
811.788635	439.000000
811.823975	445.000000
811.859375	451.000000
811.894775	435.000000
811.930115	441.000000
811.965515	442.000000
812.000916	434.000000
812.036255	440.000000
812.071655	433.000000
812.106995	427.000000
812.142395	431.000000
812.177795	429.000000
812.213196	429.000000
812.248474	439.000000
812.283875	429.000000
812.319214	429.000000
812.354614	429.000000
812.390015	419.000000
812.425293	417.000000
812.460693	419.000000
812.496094	420.000000
812.531433	417.000000
812.566772	408.000000
812.602173	416.000000
812.637451	418.000000
812.672852	412.000000
812.708191	411.000000
812.743530	410.000000
812.778931	397.000000
812.814270	406.000000
812.849609	411.000000
812.884949	402.000000
812.920227	390.000000
812.955627	407.000000
812.990967	399.000000
813.026306	396.000000
813.061646	380.000000
813.096985	380.000000
813.132324	376.000000
813.167664	382.000000
813.203003	390.000000
813.238281	376.000000
813.273682	375.000000
813.308960	372.000000
813.344299	370.000000
813.379639	379.000000
813.414978	377.000000
813.450256	376.000000
813.485596	369.000000
813.520874	364.000000
813.556213	368.000000
813.591614	376.000000
813.626831	363.000000
813.662170	367.000000
813.697510	373.000000
813.732788	363.000000
813.768127	374.000000
813.803467	369.000000
813.838745	365.000000
813.874084	368.000000
813.909363	361.000000
813.944641	369.000000
813.979980	357.000000
814.015320	367.000000
814.050598	359.000000
814.085876	364.000000
814.121155	357.000000
814.156494	356.000000
814.191772	349.000000
814.227051	348.000000
814.262390	357.000000
814.297668	358.000000
814.332947	354.000000
814.368225	343.000000
814.403564	348.000000
814.438782	344.000000
814.474121	346.000000
814.509338	339.000000
814.544617	352.000000
814.579956	342.000000
814.615173	350.000000
814.650513	346.000000
814.685791	340.000000
814.721008	350.000000
814.756348	343.000000
814.791626	326.000000
814.826843	345.000000
814.862122	336.000000
814.897400	336.000000
814.932678	341.000000
814.967957	340.000000
815.003235	329.000000
815.038452	326.000000
815.073730	326.000000
815.108948	335.000000
815.144226	329.000000
815.179504	336.000000
815.214722	320.000000
815.250000	325.000000
815.285278	330.000000
815.320496	321.000000
815.355774	321.000000
815.391052	327.000000
815.426270	321.000000
815.461487	317.000000
815.496765	318.000000
815.531982	317.000000
815.567261	317.000000
815.602539	326.000000
815.637695	320.000000
815.672974	316.000000
815.708191	315.000000
815.743408	323.000000
815.778687	311.000000
815.813904	321.000000
815.849121	308.000000
815.884399	310.000000
815.919556	310.000000
815.954834	301.000000
815.990051	305.000000
816.025269	312.000000
816.060486	309.000000
816.095703	304.000000
816.130920	304.000000
816.166199	304.000000
816.201416	308.000000
816.236572	310.000000
816.271851	301.000000
816.307007	302.000000
816.342224	291.000000
816.377441	297.000000
816.412659	287.000000
816.447876	294.000000
816.483093	297.000000
816.518250	297.000000
816.553467	293.000000
816.588745	290.000000
816.623901	281.000000
816.659119	274.000000
816.694275	292.000000
816.729492	281.000000
816.764709	320.000000
816.799927	284.000000
816.835083	284.000000
816.870300	281.000000
816.905457	288.000000
816.940674	285.000000
816.975830	281.000000
817.010986	272.000000
817.046204	282.000000
817.081421	273.000000
817.116577	275.000000
817.151733	285.000000
817.186951	286.000000
817.222107	282.000000
817.257324	288.000000
817.292419	278.000000
817.327637	278.000000
817.362854	283.000000
817.398010	279.000000
817.433167	268.000000
817.468323	274.000000
817.503479	271.000000
817.538635	282.000000
817.573853	279.000000
817.608948	276.000000
817.644165	274.000000
817.679321	267.000000
817.714478	269.000000
817.749634	274.000000
817.784790	284.000000
817.819946	275.000000
817.855103	258.000000
817.890198	271.000000
817.925415	261.000000
817.960571	265.000000
817.995667	269.000000
818.030823	266.000000
818.066040	263.000000
818.101135	261.000000
818.136292	266.000000
818.171448	263.000000
818.206543	274.000000
818.241699	269.000000
818.276855	266.000000
818.311951	261.000000
818.347107	259.000000
818.382263	260.000000
818.417358	270.000000
818.452515	269.000000
818.487610	273.000000
818.522766	258.000000
818.557922	266.000000
818.593018	259.000000
818.628113	257.000000
818.663269	258.000000
818.698364	265.000000
818.733521	256.000000
818.768677	261.000000
818.803711	255.000000
818.838867	257.000000
818.874023	252.000000
818.909058	255.000000
818.944214	256.000000
818.979370	255.000000
819.014404	248.000000
819.049561	250.000000
819.084595	256.000000
819.119751	249.000000
819.154846	250.000000
819.189941	257.000000
819.225037	248.000000
819.260193	245.000000
819.295227	248.000000
819.330322	240.000000
819.365479	239.000000
819.400513	269.000000
819.435608	244.000000
819.470764	237.000000
819.505798	239.000000
819.540894	241.000000
819.575989	241.000000
819.611084	246.000000
819.646179	250.000000
819.681213	244.000000
819.716309	243.000000
819.751404	238.000000
819.786438	249.000000
819.821533	232.000000
819.856628	240.000000
819.891663	242.000000
819.926758	253.000000
819.961853	244.000000
819.996887	235.000000
820.031982	238.000000
820.067017	233.000000
820.102112	261.000000
820.137207	235.000000
820.172302	252.000000
820.207275	230.000000
820.242371	231.000000
820.277405	236.000000
820.312500	232.000000
820.347534	237.000000
820.382568	242.000000
820.417664	234.000000
820.452759	230.000000
820.487732	224.000000
820.522827	236.000000
820.557861	231.000000
820.592896	231.000000
820.627930	234.000000
820.662964	228.000000
820.698059	238.000000
820.733093	229.000000
820.768127	235.000000
820.803162	231.000000
820.838196	228.000000
820.873230	226.000000
820.908264	233.000000
820.943298	223.000000
820.978333	235.000000
821.013367	232.000000
821.048401	237.000000
821.083435	234.000000
821.118469	223.000000
821.153503	231.000000
821.188477	226.000000
821.223511	220.000000
821.258484	226.000000
821.293579	227.000000
821.328613	219.000000
821.363647	225.000000
821.398621	217.000000
821.433655	223.000000
821.468628	233.000000
821.503662	222.000000
821.538696	228.000000
821.573669	218.000000
821.608704	221.000000
821.643677	221.000000
821.678650	224.000000
821.713684	230.000000
821.748718	221.000000
821.783691	225.000000
821.818726	218.000000
821.853638	223.000000
821.888672	220.000000
821.923706	217.000000
821.958618	214.000000
821.993652	219.000000
822.028687	218.000000
822.063599	224.000000
822.098633	222.000000
822.133667	212.000000
822.168579	214.000000
822.203613	221.000000
822.238586	209.000000
822.273560	216.000000
822.308533	217.000000
822.343567	212.000000
822.378479	213.000000
822.413452	215.000000
822.448425	208.000000
822.483398	219.000000
822.518372	220.000000
822.553345	213.000000
822.588318	223.000000
822.623291	210.000000
822.658203	208.000000
822.693237	215.000000
822.728210	211.000000
822.763123	209.000000
822.798096	211.000000
822.833069	214.000000
822.867981	212.000000
822.902954	212.000000
822.937927	214.000000
822.972900	216.000000
823.007874	206.000000
823.042725	215.000000
823.077698	218.000000
823.112671	209.000000
823.147583	210.000000
823.182556	213.000000
823.217529	212.000000
823.252441	203.000000
823.287415	219.000000
823.322388	209.000000
823.357239	209.000000
823.392212	213.000000
823.427185	216.000000
823.462097	204.000000
823.497009	210.000000
823.531982	205.000000
823.566895	209.000000
823.601807	201.000000
823.636719	205.000000
823.671631	205.000000
823.706604	207.000000
823.741455	207.000000
823.776428	198.000000
823.811340	206.000000
823.846252	218.000000
823.881165	210.000000
823.916138	209.000000
823.950989	209.000000
823.985901	205.000000
824.020813	205.000000
824.055725	201.000000
824.090637	202.000000
824.125610	204.000000
824.160461	208.000000
824.195374	207.000000
824.230225	206.000000
824.265198	196.000000
824.300110	203.000000
824.334961	213.000000
824.369873	194.000000
824.404785	206.000000
824.439636	209.000000
824.474548	199.000000
824.509460	193.000000
824.544312	208.000000
824.579224	206.000000
824.614075	204.000000
824.648987	202.000000
824.683899	209.000000
824.718811	200.000000
824.753662	208.000000
824.788574	206.000000
824.823364	202.000000
824.858276	195.000000
824.893188	207.000000
824.928040	211.000000
824.962952	201.000000
824.997803	203.000000
825.032654	196.000000
825.067566	204.000000
825.102417	193.000000
825.137268	201.000000
825.172119	196.000000
825.206970	198.000000
825.241882	198.000000
825.276733	197.000000
825.311646	193.000000
825.346436	194.000000
825.381348	188.000000
825.416138	202.000000
825.450989	191.000000
825.485901	188.000000
825.520691	186.000000
825.555542	194.000000
825.590454	191.000000
825.625244	193.000000
825.660095	201.000000
825.695007	199.000000
825.729797	193.000000
825.764648	195.000000
825.799438	192.000000
825.834290	198.000000
825.869202	188.000000
825.903992	196.000000
825.938843	192.000000
825.973694	196.000000
826.008484	205.000000
826.043335	193.000000
826.078186	187.000000
826.112976	203.000000
826.147827	197.000000
826.182678	209.000000
826.217468	186.000000
826.252319	198.000000
826.287109	191.000000
826.321899	201.000000
826.356750	194.000000
826.391541	189.000000
826.426392	199.000000
826.461182	193.000000
826.495972	189.000000
826.530823	184.000000
826.565613	198.000000
826.600403	188.000000
826.635254	194.000000
826.670044	187.000000
826.704834	189.000000
826.739685	187.000000
826.774475	191.000000
826.809265	193.000000
826.844055	188.000000
826.878906	198.000000
826.913635	194.000000
826.948425	194.000000
826.983215	193.000000
827.018005	198.000000
827.052856	189.000000
827.087585	193.000000
827.122375	185.000000
827.157227	185.000000
827.191956	205.000000
827.226746	183.000000
827.261536	194.000000
827.296265	180.000000
827.331116	189.000000
827.365906	191.000000
827.400635	186.000000
827.435425	182.000000
827.470215	195.000000
827.504944	186.000000
827.539734	197.000000
827.574463	190.000000
827.609253	197.000000
827.644043	192.000000
827.678772	199.000000
827.713562	186.000000
827.748352	189.000000
827.783081	183.000000
827.817871	192.000000
827.852600	186.000000
827.887329	191.000000
827.922119	181.000000
827.956848	192.000000
827.991638	197.000000
828.026367	194.000000
828.061157	189.000000
828.095886	187.000000
828.130615	200.000000
828.165344	180.000000
828.200073	185.000000
828.234863	186.000000
828.269592	190.000000
828.304321	192.000000
828.339111	188.000000
828.373779	185.000000
828.408569	189.000000
828.443298	191.000000
828.477966	184.000000
828.512756	184.000000
828.547424	186.000000
828.582214	185.000000
828.616943	185.000000
828.651672	184.000000
828.686340	191.000000
828.721130	184.000000
828.755798	188.000000
828.790527	186.000000
828.825256	188.000000
828.859924	182.000000
828.894714	191.000000
828.929443	196.000000
828.964111	183.000000
828.998840	188.000000
829.033569	183.000000
829.068237	179.000000
829.102966	185.000000
829.137634	183.000000
829.172363	189.000000
829.207092	185.000000
829.241821	182.000000
829.276489	174.000000
829.311157	185.000000
829.345825	181.000000
829.380554	188.000000
829.415283	182.000000
829.449951	178.000000
829.484619	191.000000
829.519348	195.000000
829.554016	181.000000
829.588745	184.000000
829.623413	176.000000
829.658081	197.000000
829.692749	180.000000
829.727417	192.000000
829.762146	181.000000
829.796814	181.000000
829.831482	186.000000
829.866150	187.000000
829.900879	185.000000
829.935486	188.000000
829.970154	179.000000
830.004883	198.000000
830.039490	187.000000
830.074219	182.000000
830.108887	185.000000
830.143494	185.000000
830.178223	177.000000
830.212891	183.000000
830.247498	189.000000
830.282166	192.000000
830.316772	192.000000
830.351501	176.000000
830.386169	188.000000
830.420776	182.000000
830.455444	186.000000
830.490112	177.000000
830.524719	176.000000
830.559387	182.000000
830.594055	191.000000
830.628662	182.000000
830.663330	184.000000
830.697998	186.000000
830.732605	183.000000
830.767273	182.000000
830.801941	182.000000
830.836487	192.000000
830.871155	183.000000
830.905762	183.000000
830.940430	177.000000
830.975098	177.000000
831.009644	186.000000
831.044312	191.000000
831.078979	187.000000
831.113525	173.000000
831.148193	185.000000
831.182861	180.000000
831.217407	181.000000
831.252075	200.000000
831.286621	182.000000
831.321289	178.000000
831.355896	185.000000
831.390564	190.000000
831.425110	181.000000
831.459778	193.000000
831.494324	198.000000
831.528931	185.000000
831.563599	191.000000
831.598145	179.000000
831.632751	185.000000
831.667419	182.000000
831.701965	185.000000
831.736572	184.000000
831.771179	185.000000
831.805786	181.000000
831.840393	190.000000
831.874939	181.000000
831.909546	189.000000
831.944153	175.000000
831.978760	190.000000
832.013306	180.000000
832.047913	194.000000
832.082458	193.000000
832.117065	179.000000
832.151672	197.000000
832.186218	183.000000
832.220825	189.000000
832.255432	176.000000
832.289978	182.000000
832.324585	185.000000
832.359192	186.000000
832.393677	183.000000
832.428284	187.000000
832.462830	181.000000
832.497437	185.000000
832.531982	181.000000
832.566589	182.000000
832.601135	180.000000
832.635681	177.000000
832.670227	179.000000
832.704773	192.000000
832.739380	184.000000
832.773926	185.000000
832.808472	179.000000
832.843079	186.000000
832.877563	185.000000
832.912170	182.000000
832.946716	172.000000
832.981201	188.000000
833.015808	185.000000
833.050293	182.000000
833.084839	178.000000
833.119446	186.000000
833.153992	185.000000
833.188477	180.000000
833.223022	178.000000
833.257568	187.000000
833.292114	189.000000
833.326660	195.000000
833.361145	181.000000
833.395691	177.000000
833.430237	182.000000
833.464783	189.000000
833.499329	180.000000
833.533875	182.000000
833.568359	189.000000
833.602905	188.000000
833.637390	191.000000
833.671875	179.000000
833.706421	183.000000
833.740906	182.000000
833.775452	175.000000
833.809998	178.000000
833.844482	192.000000
833.879028	179.000000
833.913513	182.000000
833.947998	185.000000
833.982544	182.000000
834.017090	180.000000
834.051514	177.000000
834.086060	184.000000
834.120544	186.000000
834.155029	186.000000
834.189575	182.000000
834.223999	183.000000
834.258545	182.000000
834.293030	185.000000
834.327515	187.000000
834.362000	179.000000
834.396545	190.000000
834.430969	179.000000
834.465454	187.000000
834.500000	175.000000
834.534424	185.000000
834.568970	173.000000
834.603455	177.000000
834.637878	177.000000
834.672363	184.000000
834.706909	182.000000
834.741333	185.000000
834.775818	178.000000
834.810242	181.000000
834.844727	181.000000
834.879211	181.000000
834.913635	183.000000
834.948181	181.000000
834.982666	183.000000
835.017090	185.000000
835.051575	187.000000
835.086060	184.000000
835.120483	187.000000
835.154907	189.000000
835.189331	187.000000
835.223816	188.000000
835.258301	177.000000
835.292786	180.000000
835.327209	190.000000
835.361694	181.000000
835.396057	184.000000
835.430542	188.000000
835.465027	183.000000
835.499390	178.000000
835.533875	207.000000
835.568359	179.000000
835.602722	175.000000
835.637207	186.000000
835.671692	178.000000
835.706055	203.000000
835.740540	185.000000
835.774902	186.000000
835.809387	185.000000
835.843811	177.000000
835.878235	190.000000
835.912659	179.000000
835.947083	185.000000
835.981506	178.000000
836.015930	179.000000
836.050354	186.000000
836.084778	192.000000
836.119202	187.000000
836.153625	198.000000
836.187988	173.000000
836.222473	180.000000
836.256897	181.000000
836.291260	181.000000
836.325684	181.000000
836.360046	181.000000
836.394470	178.000000
836.428894	189.000000
836.463318	177.000000
836.497681	184.000000
836.532104	188.000000
836.566467	182.000000
836.600891	178.000000
836.635315	192.000000
836.669678	183.000000
836.704102	185.000000
836.738525	184.000000
836.772888	177.000000
836.807251	177.000000
836.841675	183.000000
836.876038	177.000000
836.910461	179.000000
836.944763	185.000000
836.979187	177.000000
837.013611	187.000000
837.047974	177.000000
837.082336	198.000000
837.116699	188.000000
837.151062	187.000000
837.185486	178.000000
837.219849	184.000000
837.254211	192.000000
837.288574	185.000000
837.322937	176.000000
837.357300	175.000000
837.391663	194.000000
837.426086	185.000000
837.460388	185.000000
837.494751	188.000000
837.529114	177.000000
837.563477	189.000000
837.597839	182.000000
837.632141	185.000000
837.666565	184.000000
837.700928	189.000000
837.735229	183.000000
837.769592	187.000000
837.803955	187.000000
837.838257	184.000000
837.872620	178.000000
837.906982	190.000000
837.941284	179.000000
837.975647	190.000000
838.010010	190.000000
838.044312	181.000000
838.078674	177.000000
838.112976	182.000000
838.147339	182.000000
838.181702	183.000000
838.216003	187.000000
838.250366	181.000000
838.284668	184.000000
838.318970	181.000000
838.353333	178.000000
838.387634	184.000000
838.421936	183.000000
838.456299	179.000000
838.490601	190.000000
838.524902	190.000000
838.559265	186.000000
838.593567	191.000000
838.627869	180.000000
838.662170	185.000000
838.696472	178.000000
838.730774	185.000000
838.765137	184.000000
838.799377	172.000000
838.833740	185.000000
838.868042	190.000000
838.902283	178.000000
838.936646	190.000000
838.970947	187.000000
839.005188	192.000000
839.039551	175.000000
839.073792	192.000000
839.108093	185.000000
839.142395	192.000000
839.176697	178.000000
839.210937	185.000000
839.245300	195.000000
839.279541	177.000000
839.313843	182.000000
839.348145	184.000000
839.382385	189.000000
839.416687	185.000000
839.450989	188.000000
839.485229	181.000000
839.519531	182.000000
839.553833	188.000000
839.588013	186.000000
839.622314	185.000000
839.656555	186.000000
839.690857	185.000000
839.725159	178.000000
839.759460	183.000000
839.793640	179.000000
839.827942	183.000000
839.862183	180.000000
839.896423	188.000000
839.930725	197.000000
839.964966	189.000000
839.999207	193.000000
840.033508	189.000000
840.067688	180.000000
840.101990	190.000000
840.136230	183.000000
840.170471	191.000000
840.204712	175.000000
840.238953	178.000000
840.273193	189.000000
840.307434	185.000000
840.341736	178.000000
840.375916	181.000000
840.410217	187.000000
840.444397	188.000000
840.478638	189.000000
840.512878	189.000000
840.547119	187.000000
840.581360	184.000000
840.615601	194.000000
840.649780	195.000000
840.684021	184.000000
840.718262	188.000000
840.752441	194.000000
840.786682	188.000000
840.820862	186.000000
840.855103	197.000000
840.889343	184.000000
840.923584	189.000000
840.957764	187.000000
840.992004	189.000000
841.026184	197.000000
841.060425	185.000000
841.094666	179.000000
841.128845	185.000000
841.163025	183.000000
841.197266	188.000000
841.231445	181.000000
841.265686	186.000000
841.299866	177.000000
841.334045	194.000000
841.368286	181.000000
841.402405	194.000000
841.436646	185.000000
841.470825	184.000000
841.505005	182.000000
841.539185	181.000000
841.573425	181.000000
841.607544	186.000000
841.641785	183.000000
841.675964	183.000000
841.710144	187.000000
841.744324	182.000000
841.778503	183.000000
841.812683	181.000000
841.846863	192.000000
841.881042	193.000000
841.915222	180.000000
841.949402	197.000000
841.983521	172.000000
842.017700	182.000000
842.051880	181.000000
842.086060	188.000000
842.120239	184.000000
842.154419	180.000000
842.188538	182.000000
842.222717	182.000000
842.256897	191.000000
842.291016	186.000000
842.325195	190.000000
842.359375	197.000000
842.393494	196.000000
842.427673	187.000000
842.461853	185.000000
842.495911	194.000000
842.530090	186.000000
842.564209	188.000000
842.598389	191.000000
842.632568	186.000000
842.666626	187.000000
842.700806	182.000000
842.734985	183.000000
842.769043	186.000000
842.803223	183.000000
842.837402	179.000000
842.871460	183.000000
842.905640	193.000000
842.939697	184.000000
842.973877	185.000000
843.007996	191.000000
843.042175	192.000000
843.076233	183.000000
843.110413	183.000000
843.144470	196.000000
843.178589	187.000000
843.212769	184.000000
843.246826	184.000000
843.280945	181.000000
843.315125	184.000000
843.349182	181.000000
843.383301	193.000000
843.417419	197.000000
843.451538	184.000000
843.485657	182.000000
843.519714	182.000000
843.553833	186.000000
843.587952	176.000000
843.622070	182.000000
843.656128	190.000000
843.690247	184.000000
843.724304	181.000000
843.758423	192.000000
843.792542	178.000000
843.826599	187.000000
843.860718	185.000000
843.894836	179.000000
843.928894	188.000000
843.963013	185.000000
843.997070	179.000000
844.031128	180.000000
844.065247	190.000000
844.099304	190.000000
844.133362	187.000000
844.167480	189.000000
844.201599	191.000000
844.235596	187.000000
844.269714	188.000000
844.303711	189.000000
844.337830	177.000000
844.371948	190.000000
844.405945	185.000000
844.440063	183.000000
844.474121	203.000000
844.508118	182.000000
844.542236	189.000000
844.576294	183.000000
844.610352	183.000000
844.644409	185.000000
844.678406	179.000000
844.712524	186.000000
844.746582	195.000000
844.780640	181.000000
844.814636	187.000000
844.848755	191.000000
844.882751	184.000000
844.916809	186.000000
844.950867	186.000000
844.984863	189.000000
845.018921	185.000000
845.052979	180.000000
845.086975	182.000000
845.121033	178.000000
845.155090	181.000000
845.189087	189.000000
845.223145	185.000000
845.257141	186.000000
845.291199	190.000000
845.325256	189.000000
845.359253	189.000000
845.393250	196.000000
845.427307	185.000000
845.461304	190.000000
845.495361	186.000000
845.529358	195.000000
845.563354	184.000000
845.597412	181.000000
845.631409	196.000000
845.665405	191.000000
845.699463	191.000000
845.733459	180.000000
845.767456	197.000000
845.801453	186.000000
845.835449	193.000000
845.869446	190.000000
845.903503	191.000000
845.937439	183.000000
845.971497	193.000000
846.005493	182.000000
846.039429	187.000000
846.073486	195.000000
846.107483	182.000000
846.141418	184.000000
846.175476	183.000000
846.209473	191.000000
846.243408	182.000000
846.277405	189.000000
846.311401	184.000000
846.345337	186.000000
846.379395	192.000000
846.413330	185.000000
846.447327	191.000000
846.481323	185.000000
846.515259	183.000000
846.549255	183.000000
846.583252	186.000000
846.617187	181.000000
846.651184	183.000000
846.685120	185.000000
846.719055	188.000000
846.753052	190.000000
846.786987	186.000000
846.820984	185.000000
846.854980	188.000000
846.888916	185.000000
846.922852	184.000000
846.956848	193.000000
846.990723	181.000000
847.024719	188.000000
847.058716	180.000000
847.092590	195.000000
847.126587	183.000000
847.160522	184.000000
847.194458	189.000000
847.228455	186.000000
847.262390	176.000000
847.296265	181.000000
847.330261	191.000000
847.364136	181.000000
847.398132	183.000000
847.432068	188.000000
847.466003	184.000000
847.499939	188.000000
847.533875	186.000000
847.567749	188.000000
847.601746	188.000000
847.635681	191.000000
847.669556	178.000000
847.703491	192.000000
847.737427	203.000000
847.771301	179.000000
847.805237	188.000000
847.839233	187.000000
847.873108	185.000000
847.907043	185.000000
847.940918	191.000000
847.974854	184.000000
848.008789	191.000000
848.042664	185.000000
848.076538	189.000000
848.110474	181.000000
848.144348	189.000000
848.178284	177.000000
848.212219	194.000000
848.246094	182.000000
848.279968	190.000000
848.313904	191.000000
848.347778	188.000000
848.381653	183.000000
848.415588	183.000000
848.449463	179.000000
848.483337	187.000000
848.517212	190.000000
848.551086	186.000000
848.585022	179.000000
848.618835	199.000000
848.652771	181.000000
848.686646	181.000000
848.720520	187.000000
848.754395	187.000000
848.788330	187.000000
848.822144	191.000000
848.856018	187.000000
848.889954	196.000000
848.923767	185.000000
848.957642	183.000000
848.991577	183.000000
849.025391	187.000000
849.059265	182.000000
849.093079	181.000000
849.126953	180.000000
849.160828	194.000000
849.194641	183.000000
849.228577	186.000000
849.262451	181.000000
849.296265	181.000000
849.330139	184.000000
849.364014	188.000000
849.397827	186.000000
849.431702	187.000000
849.465515	192.000000
849.499329	177.000000
849.533203	183.000000
849.567078	176.000000
849.600891	183.000000
849.634766	186.000000
849.668518	193.000000
849.702393	183.000000
849.736267	184.000000
849.770020	193.000000
849.803894	191.000000
849.837769	186.000000
849.871521	187.000000
849.905396	188.000000
849.939270	182.000000
849.973022	183.000000
850.006897	186.000000
850.040710	185.000000
850.074524	186.000000
850.108337	185.000000
850.142151	189.000000
850.175964	190.000000
850.209778	182.000000
850.243530	174.000000
850.277405	192.000000
850.311218	183.000000
850.344971	188.000000
850.378845	197.000000
850.412659	179.000000
850.446411	191.000000
850.480225	186.000000
850.514038	187.000000
850.547791	182.000000
850.581665	187.000000
850.615417	184.000000
850.649231	189.000000
850.683044	189.000000
850.716858	176.000000
850.750610	188.000000
850.784424	190.000000
850.818176	184.000000
850.851929	178.000000
850.885742	182.000000
850.919495	183.000000
850.953308	194.000000
850.987122	193.000000
851.020874	178.000000
851.054626	178.000000
851.088440	187.000000
851.122192	193.000000
851.156006	186.000000
851.189697	186.000000
851.223511	181.000000
851.257263	190.000000
851.291077	189.000000
851.324829	183.000000
851.358582	186.000000
851.392334	184.000000
851.426086	183.000000
851.459900	200.000000
851.493591	187.000000
851.527344	184.000000
851.561157	185.000000
851.594849	192.000000
851.628662	186.000000
851.662415	199.000000
851.696106	186.000000
851.729858	190.000000
851.763611	179.000000
851.797363	187.000000
851.831116	181.000000
851.864868	190.000000
851.898560	190.000000
851.932312	184.000000
851.966064	187.000000
851.999817	185.000000
852.033569	181.000000
852.067261	195.000000
852.101013	182.000000
852.134766	185.000000
852.168457	172.000000
852.202209	192.000000
852.235901	177.000000
852.269592	187.000000
852.303345	196.000000
852.337036	190.000000
852.370789	185.000000
852.404541	187.000000
852.438171	177.000000
852.471924	185.000000
852.505676	179.000000
852.539307	186.000000
852.573059	180.000000
852.606812	186.000000
852.640442	184.000000
852.674194	196.000000
852.707886	192.000000
852.741577	191.000000
852.775269	184.000000
852.809021	187.000000
852.842651	189.000000
852.876404	189.000000
852.910034	187.000000
852.943787	192.000000
852.977478	190.000000
853.011108	182.000000
853.044861	184.000000
853.078552	195.000000
853.112183	190.000000
853.145874	185.000000
853.179626	177.000000
853.213257	190.000000
853.246948	183.000000
853.280640	193.000000
853.314270	188.000000
853.347961	190.000000
853.381653	189.000000
853.415283	191.000000
853.448975	184.000000
853.482605	185.000000
853.516296	186.000000
853.549988	173.000000
853.583618	188.000000
853.617310	185.000000
853.651001	190.000000
853.684631	178.000000
853.718323	184.000000
853.751953	188.000000
853.785583	176.000000
853.819275	189.000000
853.852966	185.000000
853.886536	178.000000
853.920227	185.000000
853.953918	185.000000
853.987488	187.000000
854.021179	186.000000
854.054749	193.000000
854.088440	187.000000
854.122131	181.000000
854.155701	185.000000
854.189331	186.000000
854.223022	191.000000
854.256592	189.000000
854.290283	183.000000
854.323914	193.000000
854.357483	181.000000
854.391174	189.000000
854.424744	194.000000
854.458374	185.000000
854.492065	193.000000
854.525696	185.000000
854.559265	191.000000
854.592896	197.000000
854.626465	187.000000
854.660095	185.000000
854.693787	191.000000
854.727356	186.000000
854.760986	191.000000
854.794617	192.000000
854.828186	190.000000
854.861816	189.000000
854.895447	190.000000
854.929016	184.000000
854.962585	189.000000
854.996155	193.000000
855.029785	184.000000
855.063416	185.000000
855.097046	192.000000
855.130615	178.000000
855.164185	191.000000
855.197754	185.000000
855.231384	191.000000
855.264954	181.000000
855.298523	194.000000
855.332153	187.000000
855.365723	193.000000
855.399292	182.000000
855.432922	184.000000
855.466492	184.000000
855.500061	185.000000
855.533630	178.000000
855.567200	189.000000
855.600769	190.000000
855.634338	193.000000
855.667969	179.000000
855.701477	185.000000
855.735046	181.000000
855.768616	176.000000
855.802185	189.000000
855.835754	197.000000
855.869324	175.000000
855.902893	185.000000
855.936401	197.000000
855.969971	188.000000
856.003540	178.000000
856.037109	189.000000
856.070618	182.000000
856.104187	178.000000
856.137695	182.000000
856.171265	175.000000
856.204834	186.000000
856.238403	190.000000
856.271912	177.000000
856.305481	194.000000
856.338989	181.000000
856.372559	189.000000
856.406128	192.000000
856.439636	189.000000
856.473145	182.000000
856.506653	195.000000
856.540222	188.000000
856.573792	190.000000
856.607300	194.000000
856.640808	174.000000
856.674377	187.000000
856.707825	213.000000
856.741394	192.000000
856.774902	179.000000
856.808472	180.000000
856.841980	187.000000
856.875488	191.000000
856.908936	181.000000
856.942505	187.000000
856.976013	184.000000
857.009521	184.000000
857.043030	181.000000
857.076477	185.000000
857.110046	191.000000
857.143555	183.000000
857.177063	187.000000
857.210571	186.000000
857.244080	182.000000
857.277527	191.000000
857.311035	186.000000
857.344543	193.000000
857.378052	181.000000
857.411499	189.000000
857.445068	195.000000
857.478516	185.000000
857.512024	175.000000
857.545532	185.000000
857.578979	183.000000
857.612427	189.000000
857.645874	182.000000
857.679382	186.000000
857.712891	189.000000
857.746399	190.000000
857.779846	191.000000
857.813354	193.000000
857.846741	184.000000
857.880249	181.000000
857.913757	189.000000
857.947266	192.000000
857.980652	184.000000
858.014160	186.000000
858.047546	184.000000
858.081055	188.000000
858.114563	195.000000
858.147949	182.000000
858.181458	188.000000
858.214844	184.000000
858.248352	181.000000
858.281799	193.000000
858.315308	200.000000
858.348694	189.000000
858.382141	195.000000
858.415588	190.000000
858.449036	194.000000
858.482483	188.000000
858.515930	187.000000
858.549377	185.000000
858.582825	193.000000
858.616211	190.000000
858.649658	189.000000
858.683105	179.000000
858.716553	185.000000
858.750000	175.000000
858.783386	184.000000
858.816833	175.000000
858.850281	188.000000
858.883728	187.000000
858.917114	191.000000
858.950562	193.000000
858.983948	196.000000
859.017395	194.000000
859.050781	181.000000
859.084167	178.000000
859.117615	181.000000
859.151062	189.000000
859.184448	181.000000
859.217834	184.000000
859.251282	184.000000
859.284668	176.000000
859.318054	183.000000
859.351440	183.000000
859.384888	196.000000
859.418274	178.000000
859.451721	181.000000
859.485046	189.000000
859.518494	188.000000
859.551819	184.000000
859.585266	190.000000
859.618652	186.000000
859.652039	183.000000
859.685425	177.000000
859.718811	183.000000
859.752197	177.000000
859.785583	188.000000
859.819031	192.000000
859.852356	190.000000
859.885742	183.000000
859.919067	189.000000
859.952454	187.000000
859.985901	193.000000
860.019287	184.000000
860.052612	0.000000
860.085999	0.000000
860.119324	0.000000
860.152710	0.000000
860.186096	0.000000
860.219421	0.000000
860.252808	0.000000
860.286133	0.000000
860.319519	0.000000
860.352905	0.000000
860.386292	0.000000
860.419617	0.000000
860.452942	0.000000
860.486267	0.000000
860.519653	0.000000
860.553040	0.000000
860.586365	0.000000
860.619690	0.000000
860.653076	0.000000
860.686340	0.000000
860.719727	0.000000
860.753113	0.000000
860.786377	0.000000
860.819763	0.000000
860.853027	0.000000
860.886414	0.000000
860.919739	0.000000
860.953125	0.000000
860.986389	0.000000
861.019714	0.000000
861.053040	0.000000
861.086365	0.000000
861.119690	0.000000
861.153076	0.000000
861.186340	0.000000
861.219666	0.000000
861.252930	0.000000
861.286316	0.000000
861.319641	0.000000
861.352905	0.000000
861.386230	0.000000
861.419495	0.000000
861.452820	0.000000
861.486145	0.000000
861.519470	0.000000
861.552734	0.000000
861.586060	0.000000
861.619324	0.000000
861.652649	0.000000
861.685974	0.000000
861.719238	0.000000
861.752563	0.000000
861.785828	0.000000
861.819092	0.000000
861.852417	0.000000
861.885742	0.000000
861.918945	0.000000
861.952271	0.000000
861.985535	0.000000
862.018799	0.000000
862.052124	0.000000
862.085449	0.000000
862.118652	0.000000
862.151978	0.000000
862.185181	0.000000
862.218506	0.000000
862.251770	0.000000
862.285034	0.000000
862.318298	0.000000
862.351562	0.000000
862.384827	0.000000
862.418091	0.000000
862.451355	0.000000
862.484619	0.000000
862.517883	0.000000
862.551086	0.000000
862.584351	0.000000
862.617676	0.000000
862.650940	0.000000
862.684143	0.000000
862.717407	0.000000
862.750610	0.000000
862.783875	0.000000
862.817139	0.000000
862.850342	0.000000
862.883606	0.000000
862.916870	0.000000
862.950073	0.000000
862.983337	0.000000
863.016602	0.000000
863.049805	0.000000
863.083069	0.000000
863.116211	0.000000
863.149475	0.000000
863.182739	0.000000
863.216003	0.000000
863.249146	0.000000
863.282410	0.000000
863.315613	0.000000
863.348816	0.000000
863.382080	0.000000
863.415222	0.000000
863.448486	0.000000
863.481689	0.000000
863.514893	0.000000
863.548157	0.000000
863.581360	0.000000
863.614502	0.000000
863.647766	0.000000
863.680908	0.000000
863.714172	0.000000
863.747375	0.000000
863.780579	0.000000
863.813721	0.000000
863.846985	0.000000
863.880127	0.000000
863.913330	0.000000
863.946533	0.000000
863.979675	0.000000
864.012939	0.000000
