Model Number: SPM-001-M   
Serial Number: 10090201
Firmware Version: 004.17.6
Exposure Time: 500000.000000us
Data Taken on: 27-08-2020 09:42:35.479
Wavelength	Amplitude
733.770752	0.000000
733.808716	0.000000
733.846619	0.000000
733.884583	0.000000
733.922546	0.000000
733.960449	0.000000
733.998413	0.000000
734.036377	0.000000
734.074219	0.000000
734.112183	0.000000
734.150085	0.000000
734.188049	0.000000
734.226013	0.000000
734.263916	0.000000
734.301819	0.000000
734.339783	0.000000
734.377686	0.000000
734.415588	0.000000
734.453552	0.000000
734.491455	0.000000
734.529419	0.000000
734.567322	0.000000
734.605225	0.000000
734.643127	0.000000
734.681091	0.000000
734.718994	0.000000
734.756897	0.000000
734.794800	0.000000
734.832703	0.000000
734.870667	0.000000
734.908508	0.000000
734.946472	0.000000
734.984375	0.000000
735.022278	0.000000
735.060181	0.000000
735.098083	0.000000
735.135986	0.000000
735.173889	0.000000
735.211792	0.000000
735.249695	0.000000
735.287598	0.000000
735.325439	0.000000
735.363403	0.000000
735.401306	0.000000
735.439148	0.000000
735.477051	0.000000
735.515015	0.000000
735.552856	0.000000
735.590759	0.000000
735.628662	0.000000
735.666504	0.000000
735.704407	0.000000
735.742310	0.000000
735.780212	0.000000
735.818115	0.000000
735.856018	0.000000
735.893860	0.000000
735.931763	0.000000
735.969604	0.000000
736.007507	0.000000
736.045410	0.000000
736.083252	0.000000
736.121094	0.000000
736.158997	0.000000
736.196838	0.000000
736.234741	0.000000
736.272644	0.000000
736.310486	0.000000
736.348389	0.000000
736.386230	0.000000
736.424072	0.000000
736.461975	0.000000
736.499878	0.000000
736.537720	0.000000
736.575562	0.000000
736.613403	0.000000
736.651306	0.000000
736.689148	0.000000
736.726990	0.000000
736.764893	0.000000
736.802734	0.000000
736.840576	0.000000
736.878418	0.000000
736.916321	0.000000
736.954102	0.000000
736.992004	0.000000
737.029846	0.000000
737.067688	0.000000
737.105530	0.000000
737.143372	0.000000
737.181213	0.000000
737.219116	0.000000
737.256897	0.000000
737.294739	0.000000
737.332642	0.000000
737.370422	0.000000
737.408325	0.000000
737.446167	0.000000
737.483948	0.000000
737.521790	0.000000
737.559692	0.000000
737.597473	0.000000
737.635315	0.000000
737.673157	0.000000
737.710999	0.000000
737.748840	0.000000
737.786621	0.000000
737.824463	0.000000
737.862305	0.000000
737.900085	0.000000
737.937927	0.000000
737.975769	0.000000
738.013550	0.000000
738.051392	0.000000
738.089233	0.000000
738.127014	0.000000
738.164856	0.000000
738.202698	0.000000
738.240479	0.000000
738.278320	0.000000
738.316162	0.000000
738.353943	0.000000
738.391785	0.000000
738.429565	0.000000
738.467407	0.000000
738.505188	0.000000
738.542969	0.000000
738.580811	0.000000
738.618652	0.000000
738.656372	0.000000
738.694214	0.000000
738.732056	0.000000
738.769836	0.000000
738.807617	0.000000
738.845459	0.000000
738.883240	0.000000
738.921021	0.000000
738.958862	0.000000
738.996582	0.000000
739.034424	0.000000
739.072205	0.000000
739.109985	0.000000
739.147827	0.000000
739.185547	0.000000
739.223389	0.000000
739.261169	0.000000
739.298889	0.000000
739.336731	0.000000
739.374512	0.000000
739.412292	0.000000
739.450073	0.000000
739.487854	0.000000
739.525635	0.000000
739.563416	0.000000
739.601135	0.000000
739.638977	0.000000
739.676758	0.000000
739.714478	0.000000
739.752258	0.000000
739.790100	0.000000
739.827820	0.000000
739.865601	0.000000
739.903381	0.000000
739.941101	0.000000
739.978882	188.000000
740.016724	189.000000
740.054443	189.000000
740.092224	181.000000
740.130005	182.000000
740.167725	182.000000
740.205505	182.000000
740.243225	194.000000
740.281006	189.000000
740.318787	183.000000
740.356506	193.000000
740.394287	190.000000
740.432068	183.000000
740.469727	180.000000
740.507507	191.000000
740.545288	187.000000
740.583008	189.000000
740.620789	189.000000
740.658569	177.000000
740.696228	193.000000
740.734009	186.000000
740.771790	176.000000
740.809509	188.000000
740.847229	180.000000
740.884949	179.000000
740.922729	175.000000
740.960449	182.000000
740.998169	177.000000
741.035950	181.000000
741.073669	188.000000
741.111389	185.000000
741.149170	197.000000
741.186890	193.000000
741.224609	189.000000
741.262329	186.000000
741.300110	193.000000
741.337769	181.000000
741.375549	178.000000
741.413208	181.000000
741.450989	183.000000
741.488708	183.000000
741.526367	181.000000
741.564148	189.000000
741.601868	191.000000
741.639526	182.000000
741.677307	192.000000
741.715027	186.000000
741.752686	179.000000
741.790466	190.000000
741.828186	191.000000
741.865845	179.000000
741.903564	177.000000
741.941345	184.000000
741.979004	183.000000
742.016724	190.000000
742.054382	189.000000
742.092102	191.000000
742.129822	177.000000
742.167480	187.000000
742.205200	185.000000
742.242920	188.000000
742.280640	193.000000
742.318359	180.000000
742.356079	183.000000
742.393738	192.000000
742.431396	186.000000
742.469116	193.000000
742.506775	177.000000
742.544495	189.000000
742.582214	185.000000
742.619873	189.000000
742.657593	192.000000
742.695251	193.000000
742.732971	182.000000
742.770630	190.000000
742.808289	183.000000
742.846008	189.000000
742.883728	180.000000
742.921326	186.000000
742.959045	181.000000
742.996765	185.000000
743.034424	184.000000
743.072083	179.000000
743.109802	182.000000
743.147400	183.000000
743.185120	187.000000
743.222839	187.000000
743.260437	191.000000
743.298157	187.000000
743.335754	173.000000
743.373474	187.000000
743.411133	177.000000
743.448792	186.000000
743.486450	182.000000
743.524170	182.000000
743.561768	182.000000
743.599487	194.000000
743.637146	199.000000
743.674744	181.000000
743.712463	184.000000
743.750122	190.000000
743.787720	184.000000
743.825439	184.000000
743.863037	186.000000
743.900696	185.000000
743.938416	212.000000
743.976013	183.000000
744.013672	195.000000
744.051331	194.000000
744.088928	194.000000
744.126587	191.000000
744.164307	189.000000
744.201904	183.000000
744.239563	188.000000
744.277222	191.000000
744.314819	187.000000
744.352478	191.000000
744.390137	191.000000
744.427734	189.000000
744.465393	182.000000
744.502991	178.000000
744.540649	192.000000
744.578308	183.000000
744.615906	180.000000
744.653564	175.000000
744.691223	189.000000
744.728821	177.000000
744.766418	185.000000
744.804077	184.000000
744.841675	183.000000
744.879333	176.000000
744.916992	188.000000
744.954529	182.000000
744.992187	190.000000
745.029785	183.000000
745.067444	187.000000
745.105042	185.000000
745.142639	187.000000
745.180298	192.000000
745.217896	181.000000
745.255493	179.000000
745.293152	193.000000
745.330750	191.000000
745.368347	192.000000
745.405945	187.000000
745.443604	190.000000
745.481140	186.000000
745.518799	182.000000
745.556396	187.000000
745.593994	188.000000
745.631592	185.000000
745.669189	182.000000
745.706787	183.000000
745.744385	187.000000
745.781982	186.000000
745.819580	185.000000
745.857178	189.000000
745.894775	189.000000
745.932373	186.000000
745.969971	189.000000
746.007568	179.000000
746.045166	194.000000
746.082764	190.000000
746.120300	192.000000
746.157898	185.000000
746.195557	188.000000
746.233093	183.000000
746.270691	186.000000
746.308228	187.000000
746.345825	188.000000
746.383423	189.000000
746.420959	181.000000
746.458557	185.000000
746.496155	177.000000
746.533691	184.000000
746.571289	178.000000
746.608887	187.000000
746.646423	187.000000
746.684021	187.000000
746.721619	181.000000
746.759155	189.000000
746.796753	177.000000
746.834351	180.000000
746.871826	180.000000
746.909424	193.000000
746.946960	184.000000
746.984558	185.000000
747.022156	182.000000
747.059631	193.000000
747.097229	185.000000
747.134827	185.000000
747.172363	189.000000
747.209900	188.000000
747.247498	179.000000
747.285034	191.000000
747.322571	192.000000
747.360168	188.000000
747.397644	173.000000
747.435242	189.000000
747.472778	194.000000
747.510315	185.000000
747.547913	187.000000
747.585388	193.000000
747.622925	185.000000
747.660522	181.000000
747.697998	185.000000
747.735596	186.000000
747.773132	186.000000
747.810669	191.000000
747.848206	191.000000
747.885742	184.000000
747.923279	181.000000
747.960815	189.000000
747.998352	188.000000
748.035889	191.000000
748.073425	187.000000
748.110901	184.000000
748.148437	186.000000
748.185974	184.000000
748.223511	197.000000
748.261047	187.000000
748.298584	189.000000
748.336060	186.000000
748.373596	189.000000
748.411133	204.000000
748.448608	188.000000
748.486145	188.000000
748.523682	188.000000
748.561218	192.000000
748.598755	189.000000
748.636292	183.000000
748.673706	186.000000
748.711243	188.000000
748.748718	189.000000
748.786255	181.000000
748.823792	186.000000
748.861267	177.000000
748.898804	193.000000
748.936340	188.000000
748.973816	182.000000
749.011292	188.000000
749.048828	189.000000
749.086304	185.000000
749.123840	197.000000
749.161316	181.000000
749.198792	195.000000
749.236328	188.000000
749.273743	188.000000
749.311279	181.000000
749.348816	191.000000
749.386230	185.000000
749.423767	173.000000
749.461304	192.000000
749.498718	192.000000
749.536255	187.000000
749.573730	200.000000
749.611206	193.000000
749.648682	186.000000
749.686218	186.000000
749.723633	193.000000
749.761169	181.000000
749.798645	183.000000
749.836060	186.000000
749.873596	182.000000
749.911011	189.000000
749.948547	191.000000
749.986023	187.000000
750.023437	185.000000
750.060913	182.000000
750.098450	179.000000
750.135864	187.000000
750.173340	185.000000
750.210815	190.000000
750.248291	180.000000
750.285767	187.000000
750.323242	191.000000
750.360657	191.000000
750.398132	181.000000
750.435608	188.000000
750.473022	182.000000
750.510498	184.000000
750.547974	181.000000
750.585449	187.000000
750.622925	173.000000
750.660339	197.000000
750.697815	185.000000
750.735291	186.000000
750.772644	187.000000
750.810120	189.000000
750.847595	184.000000
750.885010	181.000000
750.922485	195.000000
750.959961	186.000000
750.997375	192.000000
751.034851	192.000000
751.072266	189.000000
751.109680	179.000000
751.147156	189.000000
751.184570	189.000000
751.221985	184.000000
751.259460	176.000000
751.296875	186.000000
751.334290	183.000000
751.371765	190.000000
751.409180	187.000000
751.446594	185.000000
751.484070	185.000000
751.521423	190.000000
751.558899	183.000000
751.596375	196.000000
751.633728	197.000000
751.671204	199.000000
751.708618	183.000000
751.746033	193.000000
751.783447	180.000000
751.820801	183.000000
751.858276	187.000000
751.895691	186.000000
751.933105	183.000000
751.970520	181.000000
752.007935	180.000000
752.045349	193.000000
752.082764	189.000000
752.120178	181.000000
752.157532	185.000000
752.195007	185.000000
752.232422	185.000000
752.269775	196.000000
752.307190	189.000000
752.344543	181.000000
752.382019	187.000000
752.419434	190.000000
752.456787	189.000000
752.494202	194.000000
752.531616	190.000000
752.568970	189.000000
752.606384	183.000000
752.643799	191.000000
752.681152	194.000000
752.718567	191.000000
752.755981	178.000000
752.793335	188.000000
752.830750	178.000000
752.868164	190.000000
752.905518	178.000000
752.942932	191.000000
752.980225	181.000000
753.017639	192.000000
753.055054	187.000000
753.092407	190.000000
753.129822	193.000000
753.167175	192.000000
753.204529	189.000000
753.241943	179.000000
753.279358	179.000000
753.316650	193.000000
753.354065	184.000000
753.391479	192.000000
753.428772	194.000000
753.466187	187.000000
753.503479	179.000000
753.540894	187.000000
753.578308	175.000000
753.615601	183.000000
753.653015	188.000000
753.690369	184.000000
753.727722	185.000000
753.765076	183.000000
753.802490	184.000000
753.839783	181.000000
753.877136	185.000000
753.914551	197.000000
753.951843	183.000000
753.989258	189.000000
754.026611	187.000000
754.063904	188.000000
754.101257	183.000000
754.138611	176.000000
754.175964	189.000000
754.213318	192.000000
754.250610	176.000000
754.288025	184.000000
754.325378	185.000000
754.362671	189.000000
754.400024	188.000000
754.437378	195.000000
754.474670	193.000000
754.512085	181.000000
754.549438	185.000000
754.586731	183.000000
754.624084	184.000000
754.661438	182.000000
754.698730	189.000000
754.736084	184.000000
754.773376	182.000000
754.810730	187.000000
754.848083	183.000000
754.885315	184.000000
754.922668	176.000000
754.960022	178.000000
754.997314	190.000000
755.034668	184.000000
755.072021	183.000000
755.109253	183.000000
755.146606	192.000000
755.183960	187.000000
755.221252	194.000000
755.258545	187.000000
755.295898	191.000000
755.333191	191.000000
755.370544	186.000000
755.407776	188.000000
755.445129	190.000000
755.482422	190.000000
755.519714	187.000000
755.557068	183.000000
755.594360	177.000000
755.631653	195.000000
755.668945	200.000000
755.706299	188.000000
755.743530	198.000000
755.780884	199.000000
755.818176	198.000000
755.855408	193.000000
755.892761	189.000000
755.930054	189.000000
755.967346	193.000000
756.004639	196.000000
756.041870	187.000000
756.079224	199.000000
756.116516	188.000000
756.153748	194.000000
756.191040	198.000000
756.228394	194.000000
756.265625	185.000000
756.302917	194.000000
756.340210	187.000000
756.377441	195.000000
756.414795	197.000000
756.452087	196.000000
756.489319	185.000000
756.526611	196.000000
756.563843	190.000000
756.601135	202.000000
756.638428	196.000000
756.675659	190.000000
756.712952	196.000000
756.750244	193.000000
756.787476	188.000000
756.824768	199.000000
756.862061	187.000000
756.899292	237.000000
756.936584	195.000000
756.973816	206.000000
757.011047	202.000000
757.048340	190.000000
757.085632	190.000000
757.122864	209.000000
757.160156	187.000000
757.197327	197.000000
757.234619	196.000000
757.271912	193.000000
757.309082	202.000000
757.346375	195.000000
757.383667	198.000000
757.420837	199.000000
757.458130	198.000000
757.495422	193.000000
757.532593	200.000000
757.569885	191.000000
757.607117	194.000000
757.644348	199.000000
757.681580	208.000000
757.718811	187.000000
757.756042	198.000000
757.793335	196.000000
757.830505	198.000000
757.867798	193.000000
757.905029	196.000000
757.942200	196.000000
757.979492	193.000000
758.016724	198.000000
758.053894	199.000000
758.091187	215.000000
758.128418	202.000000
758.165588	196.000000
758.202820	213.000000
758.240112	195.000000
758.277283	210.000000
758.314514	201.000000
758.351685	199.000000
758.388916	208.000000
758.426147	208.000000
758.463379	208.000000
758.500610	203.000000
758.537842	201.000000
758.575012	205.000000
758.612244	195.000000
758.649475	214.000000
758.686646	190.000000
758.723877	207.000000
758.761108	207.000000
758.798279	204.000000
758.835510	203.000000
758.872742	208.000000
758.909851	205.000000
758.947083	201.000000
758.984253	202.000000
759.021484	205.000000
759.058716	208.000000
759.095886	209.000000
759.133057	202.000000
759.170288	205.000000
759.207458	205.000000
759.244690	213.000000
759.281860	210.000000
759.319031	208.000000
759.356262	201.000000
759.393433	201.000000
759.430603	205.000000
759.467773	206.000000
759.505005	213.000000
759.542175	215.000000
759.579346	203.000000
759.616516	204.000000
759.653687	211.000000
759.690918	207.000000
759.728027	210.000000
759.765259	210.000000
759.802429	213.000000
759.839539	204.000000
759.876770	212.000000
759.913940	223.000000
759.951111	211.000000
759.988281	204.000000
760.025452	205.000000
760.062561	199.000000
760.099792	220.000000
760.136963	210.000000
760.174072	208.000000
760.211243	200.000000
760.248413	209.000000
760.285583	205.000000
760.322754	221.000000
760.359863	215.000000
760.397034	217.000000
760.434204	207.000000
760.471375	216.000000
760.508545	209.000000
760.545715	208.000000
760.582825	207.000000
760.619995	212.000000
760.657166	204.000000
760.694275	217.000000
760.731445	211.000000
760.768555	216.000000
760.805664	209.000000
760.842834	214.000000
760.879944	212.000000
760.917114	215.000000
760.954285	214.000000
760.991394	209.000000
761.028564	222.000000
761.065674	220.000000
761.102783	211.000000
761.139954	221.000000
761.177124	219.000000
761.214172	224.000000
761.251343	217.000000
761.288452	220.000000
761.325562	217.000000
761.362732	220.000000
761.399841	216.000000
761.436951	225.000000
761.474121	220.000000
761.511169	219.000000
761.548340	222.000000
761.585449	223.000000
761.622559	229.000000
761.659668	220.000000
761.696838	234.000000
761.733887	220.000000
761.771057	222.000000
761.808167	226.000000
761.845276	229.000000
761.882385	238.000000
761.919434	229.000000
761.956604	242.000000
761.993713	229.000000
762.030762	238.000000
762.067871	232.000000
762.105042	232.000000
762.142090	238.000000
762.179199	228.000000
762.216309	241.000000
762.253418	243.000000
762.290527	238.000000
762.327637	233.000000
762.364685	225.000000
762.401794	241.000000
762.438904	239.000000
762.475952	230.000000
762.513062	227.000000
762.550110	228.000000
762.587219	243.000000
762.624329	246.000000
762.661377	231.000000
762.698486	236.000000
762.735596	240.000000
762.772644	234.000000
762.809753	232.000000
762.846863	241.000000
762.883911	245.000000
762.921021	240.000000
762.958069	233.000000
762.995117	242.000000
763.032227	247.000000
763.069336	235.000000
763.106323	235.000000
763.143433	233.000000
763.180481	247.000000
763.217590	249.000000
763.254639	243.000000
763.291687	239.000000
763.328735	249.000000
763.365845	240.000000
763.402893	239.000000
763.439941	248.000000
763.477051	247.000000
763.514038	251.000000
763.551147	242.000000
763.588196	248.000000
763.625244	252.000000
763.662292	261.000000
763.699402	257.000000
763.736389	255.000000
763.773499	260.000000
763.810486	251.000000
763.847534	252.000000
763.884644	252.000000
763.921631	248.000000
763.958679	264.000000
763.995728	257.000000
764.032776	270.000000
764.069824	244.000000
764.106873	257.000000
764.143860	258.000000
764.180969	251.000000
764.218018	257.000000
764.255005	255.000000
764.292053	256.000000
764.329102	269.000000
764.366089	268.000000
764.403137	269.000000
764.440125	254.000000
764.477173	270.000000
764.514221	265.000000
764.551208	266.000000
764.588257	257.000000
764.625305	266.000000
764.662292	262.000000
764.699341	273.000000
764.736389	267.000000
764.773376	290.000000
764.810425	278.000000
764.847473	280.000000
764.884399	270.000000
764.921448	287.000000
764.958435	277.000000
764.995483	270.000000
765.032532	291.000000
765.069458	273.000000
765.106506	273.000000
765.143555	269.000000
765.180481	275.000000
765.217529	285.000000
765.254578	268.000000
765.291504	283.000000
765.328552	284.000000
765.365540	277.000000
765.402527	301.000000
765.439575	286.000000
765.476501	278.000000
765.513550	280.000000
765.550537	290.000000
765.587463	288.000000
765.624512	279.000000
765.661499	269.000000
765.698486	288.000000
765.735474	278.000000
765.772461	284.000000
765.809448	292.000000
765.846436	283.000000
765.883423	296.000000
765.920410	291.000000
765.957397	287.000000
765.994385	294.000000
766.031311	304.000000
766.068359	297.000000
766.105286	301.000000
766.142273	306.000000
766.179260	295.000000
766.216187	290.000000
766.253174	289.000000
766.290161	299.000000
766.327148	300.000000
766.364136	296.000000
766.401123	309.000000
766.438049	295.000000
766.475037	313.000000
766.512024	310.000000
766.548950	318.000000
766.585937	316.000000
766.622864	313.000000
766.659790	321.000000
766.696777	302.000000
766.733704	319.000000
766.770691	313.000000
766.807678	324.000000
766.844604	317.000000
766.881531	324.000000
766.918518	328.000000
766.955444	330.000000
766.992432	320.000000
767.029358	330.000000
767.066284	327.000000
767.103271	329.000000
767.140198	365.000000
767.177124	345.000000
767.214050	338.000000
767.251038	333.000000
767.287964	328.000000
767.324890	335.000000
767.361816	336.000000
767.398743	340.000000
767.435730	343.000000
767.472595	345.000000
767.509583	350.000000
767.546509	339.000000
767.583374	358.000000
767.620361	337.000000
767.657288	350.000000
767.694214	345.000000
767.731140	353.000000
767.768066	352.000000
767.804993	354.000000
767.841919	345.000000
767.878845	355.000000
767.915710	356.000000
767.952698	361.000000
767.989563	358.000000
768.026489	361.000000
768.063416	353.000000
768.100281	357.000000
768.137207	361.000000
768.174133	363.000000
768.211060	363.000000
768.247986	367.000000
768.284912	361.000000
768.321777	368.000000
768.358704	353.000000
768.395630	362.000000
768.432495	359.000000
768.469421	370.000000
768.506348	365.000000
768.543152	380.000000
768.580078	368.000000
768.616943	373.000000
768.653870	383.000000
768.690796	379.000000
768.727661	370.000000
768.764587	380.000000
768.801453	368.000000
768.838318	388.000000
768.875244	387.000000
768.912109	388.000000
768.948975	380.000000
768.985901	402.000000
769.022766	390.000000
769.059631	391.000000
769.096558	393.000000
769.133362	384.000000
769.170288	388.000000
769.207214	395.000000
769.244019	396.000000
769.280945	400.000000
769.317810	409.000000
769.354675	402.000000
769.391541	420.000000
769.428406	408.000000
769.465271	417.000000
769.502136	401.000000
769.539062	410.000000
769.575867	409.000000
769.612732	419.000000
769.649597	422.000000
769.686462	423.000000
769.723328	418.000000
769.760193	425.000000
769.797058	417.000000
769.833923	435.000000
769.870728	425.000000
769.907593	428.000000
769.944519	420.000000
769.981323	426.000000
770.018188	433.000000
770.055054	432.000000
770.091858	425.000000
770.128723	439.000000
770.165588	446.000000
770.202393	421.000000
770.239258	442.000000
770.276062	443.000000
770.312927	437.000000
770.349792	449.000000
770.386597	445.000000
770.423462	455.000000
770.460327	463.000000
770.497131	453.000000
770.533997	443.000000
770.570862	458.000000
770.607605	456.000000
770.644470	451.000000
770.681335	451.000000
770.718140	464.000000
770.754944	450.000000
770.791809	456.000000
770.828613	449.000000
770.865479	460.000000
770.902222	475.000000
770.939087	457.000000
770.975952	448.000000
771.012695	465.000000
771.049561	471.000000
771.086365	467.000000
771.123169	457.000000
771.159973	471.000000
771.196838	471.000000
771.233582	478.000000
771.270447	473.000000
771.307251	467.000000
771.344055	468.000000
771.380859	471.000000
771.417664	473.000000
771.454468	472.000000
771.491272	475.000000
771.528076	477.000000
771.564880	477.000000
771.601685	478.000000
771.638428	485.000000
771.675293	487.000000
771.712097	479.000000
771.748840	486.000000
771.785645	488.000000
771.822449	490.000000
771.859253	495.000000
771.896057	484.000000
771.932861	502.000000
771.969604	491.000000
772.006409	492.000000
772.043213	505.000000
772.079956	500.000000
772.116760	500.000000
772.153503	504.000000
772.190308	528.000000
772.227112	516.000000
772.263855	508.000000
772.300659	520.000000
772.337463	533.000000
772.374207	516.000000
772.411011	520.000000
772.447754	521.000000
772.484497	525.000000
772.521301	520.000000
772.558105	520.000000
772.594849	534.000000
772.631592	544.000000
772.668396	540.000000
772.705139	540.000000
772.741882	543.000000
772.778625	545.000000
772.815430	553.000000
772.852173	553.000000
772.888916	571.000000
772.925720	565.000000
772.962463	568.000000
772.999207	563.000000
773.035950	580.000000
773.072754	582.000000
773.109436	573.000000
773.146240	573.000000
773.182922	566.000000
773.219727	583.000000
773.256470	570.000000
773.293152	569.000000
773.329956	575.000000
773.366699	586.000000
773.403381	577.000000
773.440186	583.000000
773.476929	592.000000
773.513611	586.000000
773.550354	603.000000
773.587158	599.000000
773.623840	587.000000
773.660583	589.000000
773.697327	594.000000
773.734009	594.000000
773.770813	603.000000
773.807495	607.000000
773.844238	599.000000
773.880981	612.000000
773.917664	598.000000
773.954407	617.000000
773.991150	621.000000
774.027832	623.000000
774.064575	602.000000
774.101318	614.000000
774.138000	614.000000
774.174744	626.000000
774.211487	632.000000
774.248108	621.000000
774.284851	637.000000
774.321594	641.000000
774.358276	640.000000
774.395020	645.000000
774.431702	653.000000
774.468384	653.000000
774.505127	654.000000
774.541809	658.000000
774.578491	654.000000
774.615234	651.000000
774.651917	649.000000
774.688599	662.000000
774.725342	676.000000
774.762024	657.000000
774.798706	656.000000
774.835449	649.000000
774.872070	666.000000
774.908813	686.000000
774.945496	685.000000
774.982178	693.000000
775.018860	676.000000
775.055542	670.000000
775.092224	675.000000
775.128967	691.000000
775.165588	694.000000
775.202271	695.000000
775.239014	683.000000
775.275635	676.000000
775.312317	697.000000
775.349060	706.000000
775.385681	714.000000
775.422363	699.000000
775.459045	708.000000
775.495667	698.000000
775.532410	698.000000
775.569092	713.000000
775.605713	716.000000
775.642395	726.000000
775.679016	716.000000
775.715698	711.000000
775.752380	706.000000
775.789001	693.000000
775.825684	718.000000
775.862366	723.000000
775.898987	741.000000
775.935669	715.000000
775.972351	725.000000
776.008972	705.000000
776.045654	735.000000
776.082336	744.000000
776.118958	733.000000
776.155640	738.000000
776.192322	723.000000
776.228882	722.000000
776.265564	748.000000
776.302185	745.000000
776.338867	758.000000
776.375488	735.000000
776.412109	743.000000
776.448792	741.000000
776.485413	759.000000
776.522034	751.000000
776.558716	754.000000
776.595337	757.000000
776.631958	748.000000
776.668579	741.000000
776.705261	751.000000
776.741882	751.000000
776.778503	757.000000
776.815186	760.000000
776.851746	763.000000
776.888367	751.000000
776.924988	757.000000
776.961609	755.000000
776.998291	752.000000
777.034851	749.000000
777.071472	765.000000
777.108154	756.000000
777.144714	764.000000
777.181335	763.000000
777.218018	759.000000
777.254578	782.000000
777.291199	783.000000
777.327759	783.000000
777.364380	785.000000
777.401062	817.000000
777.437622	816.000000
777.474243	809.000000
777.510864	831.000000
777.547424	832.000000
777.584045	828.000000
777.620667	829.000000
777.657227	828.000000
777.693848	832.000000
777.730469	835.000000
777.767029	839.000000
777.803650	838.000000
777.840271	823.000000
777.876831	828.000000
777.913452	853.000000
777.950012	835.000000
777.986633	832.000000
778.023193	828.000000
778.059753	825.000000
778.096375	824.000000
778.132996	850.000000
778.169556	835.000000
778.206116	837.000000
778.242737	832.000000
778.279297	849.000000
778.315857	845.000000
778.352478	860.000000
778.389038	862.000000
778.425598	873.000000
778.462219	875.000000
778.498718	873.000000
778.535339	880.000000
778.571838	878.000000
778.608459	883.000000
778.645020	876.000000
778.681580	908.000000
778.718140	885.000000
778.754761	876.000000
778.791260	883.000000
778.827881	885.000000
778.864441	875.000000
778.900940	888.000000
778.937561	892.000000
778.974121	899.000000
779.010620	905.000000
779.047241	913.000000
779.083801	918.000000
779.120300	921.000000
779.156860	937.000000
779.193359	930.000000
779.229980	931.000000
779.266541	948.000000
779.303040	952.000000
779.339600	936.000000
779.376160	945.000000
779.412659	966.000000
779.449219	963.000000
779.485779	968.000000
779.522278	945.000000
779.558838	958.000000
779.595398	958.000000
779.631897	959.000000
779.668457	952.000000
779.705017	960.000000
779.741516	942.000000
779.778076	943.000000
779.814575	957.000000
779.851074	954.000000
779.887634	959.000000
779.924133	977.000000
779.960693	950.000000
779.997253	955.000000
780.033691	946.000000
780.070251	941.000000
780.106812	973.000000
780.143250	997.000000
780.179810	988.000000
780.216370	988.000000
780.252808	989.000000
780.289368	1001.000000
780.325867	997.000000
780.362366	1012.000000
780.398865	1020.000000
780.435364	1034.000000
780.471863	1021.000000
780.508423	1016.000000
780.544861	1014.000000
780.581421	1044.000000
780.617920	1044.000000
780.654419	1039.000000
780.690918	1023.000000
780.727417	1007.000000
780.763916	1002.000000
780.800415	1015.000000
780.836914	1009.000000
780.873352	1035.000000
780.909912	1030.000000
780.946411	1008.000000
780.982849	999.000000
781.019348	1006.000000
781.055786	992.000000
781.092346	980.000000
781.128845	974.000000
781.165283	963.000000
781.201782	958.000000
781.238281	935.000000
781.274719	921.000000
781.311218	898.000000
781.347717	913.000000
781.384155	868.000000
781.420654	863.000000
781.457092	842.000000
781.493591	806.000000
781.530090	784.000000
781.566528	773.000000
781.602966	744.000000
781.639465	721.000000
781.675903	685.000000
781.712402	675.000000
781.748901	654.000000
781.785278	621.000000
781.821777	613.000000
781.858276	589.000000
781.894714	571.000000
781.931152	539.000000
781.967651	528.000000
782.004089	493.000000
782.040527	491.000000
782.076965	471.000000
782.113403	453.000000
782.149902	438.000000
782.186340	410.000000
782.222778	410.000000
782.259277	387.000000
782.295654	381.000000
782.332092	379.000000
782.368591	369.000000
782.404968	368.000000
782.441467	379.000000
782.477905	394.000000
782.514282	402.000000
782.550781	433.000000
782.587219	451.000000
782.623596	479.000000
782.660095	498.000000
782.696472	537.000000
782.732910	572.000000
782.769348	605.000000
782.805786	659.000000
782.842224	710.000000
782.878662	746.000000
782.915039	796.000000
782.951477	834.000000
782.987915	855.000000
783.024292	890.000000
783.060730	958.000000
783.097168	969.000000
783.133545	995.000000
783.169983	1022.000000
783.206421	1054.000000
783.242798	1048.000000
783.279236	1050.000000
783.315613	1071.000000
783.352051	1079.000000
783.388489	1083.000000
783.424866	1078.000000
783.461304	1087.000000
783.497681	1118.000000
783.534058	1113.000000
783.570496	1129.000000
783.606934	1145.000000
783.643250	1155.000000
783.679687	1162.000000
783.716125	1151.000000
783.752441	1160.000000
783.788879	1173.000000
783.825317	1181.000000
783.861633	1198.000000
783.898071	1189.000000
783.934448	1196.000000
783.970825	1209.000000
784.007263	1222.000000
784.043579	1241.000000
784.080017	1247.000000
784.116394	1222.000000
784.152710	1234.000000
784.189148	1226.000000
784.225525	1221.000000
784.261902	1226.000000
784.298279	1235.000000
784.334656	1225.000000
784.371033	1194.000000
784.407410	1195.000000
784.443787	1174.000000
784.480164	1184.000000
784.516541	1191.000000
784.552856	1190.000000
784.589233	1178.000000
784.625610	1171.000000
784.661987	1193.000000
784.698364	1208.000000
784.734741	1223.000000
784.771057	1233.000000
784.807434	1231.000000
784.843811	1243.000000
784.880127	1202.000000
784.916504	1235.000000
784.952881	1263.000000
784.989197	1274.000000
785.025574	1308.000000
785.061951	1300.000000
785.098267	1296.000000
785.134644	1317.000000
785.170959	1321.000000
785.207275	1373.000000
785.243652	1391.000000
785.279968	1370.000000
785.316345	1326.000000
785.352722	1319.000000
785.388977	1320.000000
785.425354	1317.000000
785.461731	1311.000000
785.498047	1289.000000
785.534363	1245.000000
785.570679	1204.000000
785.606995	1191.000000
785.643372	1196.000000
785.679687	1208.000000
785.716003	1198.000000
785.752380	1169.000000
785.788635	1151.000000
785.825012	1153.000000
785.861328	1176.000000
785.897644	1167.000000
785.933960	1223.000000
785.970337	1250.000000
786.006592	1267.000000
786.042908	1276.000000
786.079285	1289.000000
786.115540	1319.000000
786.151855	1366.000000
786.188171	1409.000000
786.224487	1443.000000
786.260803	1467.000000
786.297119	1493.000000
786.333435	1492.000000
786.369751	1471.000000
786.406006	1504.000000
786.442322	1478.000000
786.478638	1456.000000
786.514954	1426.000000
786.551270	1372.000000
786.587585	1359.000000
786.623840	1324.000000
786.660156	1296.000000
786.696472	1287.000000
786.732727	1236.000000
786.769043	1219.000000
786.805298	1200.000000
786.841614	1190.000000
786.877930	1229.000000
786.914124	1238.000000
786.950439	1244.000000
786.986755	1260.000000
787.023010	1250.000000
787.059326	1253.000000
787.095642	1305.000000
787.131836	1339.000000
787.168152	1344.000000
787.204468	1367.000000
787.240723	1387.000000
787.276978	1400.000000
787.313293	1417.000000
787.349548	1446.000000
787.385803	1483.000000
787.422058	1482.000000
787.458313	1461.000000
787.494629	1441.000000
787.530823	1439.000000
787.567139	1426.000000
787.603455	1425.000000
787.639648	1419.000000
787.675903	1420.000000
787.712219	1381.000000
787.748413	1350.000000
787.784729	1355.000000
787.820984	1326.000000
787.857178	1317.000000
787.893494	1305.000000
787.929749	1309.000000
787.965942	1307.000000
788.002258	1304.000000
788.038452	1298.000000
788.074707	1311.000000
788.110962	1337.000000
788.147217	1340.000000
788.183472	1339.000000
788.219727	1315.000000
788.255920	1317.000000
788.292175	1322.000000
788.328430	1337.000000
788.364624	1331.000000
788.400879	1353.000000
788.437134	1348.000000
788.473328	1334.000000
788.509583	1328.000000
788.545837	1334.000000
788.582031	1344.000000
788.618286	1354.000000
788.654480	1361.000000
788.690735	1375.000000
788.726990	1384.000000
788.763184	1390.000000
788.799377	1416.000000
788.835632	1407.000000
788.871826	1428.000000
788.908081	1430.000000
788.944336	1424.000000
788.980469	1437.000000
789.016724	1408.000000
789.052979	1429.000000
789.089111	1403.000000
789.125366	1417.000000
789.161621	1395.000000
789.197754	1374.000000
789.234009	1335.000000
789.270142	1331.000000
789.306396	1345.000000
789.342590	1349.000000
789.378784	1325.000000
789.414978	1315.000000
789.451233	1303.000000
789.487366	1311.000000
789.523621	1329.000000
789.559814	1334.000000
789.595947	1357.000000
789.632202	1369.000000
789.668335	1331.000000
789.704529	1334.000000
789.740784	1360.000000
789.776917	1366.000000
789.813110	1396.000000
789.849304	1407.000000
789.885498	1417.000000
789.921692	1405.000000
789.957886	1402.000000
789.994019	1395.000000
790.030212	1436.000000
790.066406	1449.000000
790.102539	1459.000000
790.138733	1408.000000
790.174927	1398.000000
790.211060	1406.000000
790.247253	1392.000000
790.283386	1404.000000
790.319580	1410.000000
790.355774	1381.000000
790.391907	1312.000000
790.428101	1204.000000
790.464294	1059.000000
790.500427	912.000000
790.536621	762.000000
790.572754	641.000000
790.608887	578.000000
790.645081	603.000000
790.681274	779.000000
790.717346	1007.000000
790.753540	1216.000000
790.789734	1364.000000
790.825867	1409.000000
790.862000	1409.000000
790.898132	1416.000000
790.934265	1387.000000
790.970459	1374.000000
791.006592	1395.000000
791.042725	1409.000000
791.078918	1368.000000
791.114990	1342.000000
791.151184	1318.000000
791.187317	1328.000000
791.223389	1338.000000
791.259583	1362.000000
791.295715	1374.000000
791.331848	1385.000000
791.367981	1373.000000
791.404114	1376.000000
791.440247	1382.000000
791.476379	1417.000000
791.512451	1433.000000
791.548584	1452.000000
791.584778	1449.000000
791.620850	1445.000000
791.656982	1443.000000
791.693115	1451.000000
791.729187	1457.000000
791.765381	1473.000000
791.801514	1483.000000
791.837585	1464.000000
791.873718	1447.000000
791.909851	1455.000000
791.945923	1478.000000
791.982056	1474.000000
792.018188	1503.000000
792.054260	1510.000000
792.090393	1507.000000
792.126465	1485.000000
792.162598	1478.000000
792.198669	1488.000000
792.234741	1519.000000
792.270874	1509.000000
792.307007	1488.000000
792.343079	1470.000000
792.379150	1457.000000
792.415283	1426.000000
792.451355	1458.000000
792.487488	1447.000000
792.523560	1467.000000
792.559631	1442.000000
792.595764	1430.000000
792.631836	1398.000000
792.667908	1420.000000
792.703979	1411.000000
792.740051	1426.000000
792.776184	1443.000000
792.812256	1430.000000
792.848328	1418.000000
792.884399	1415.000000
792.920471	1402.000000
792.956543	1444.000000
792.992615	1465.000000
793.028748	1451.000000
793.064758	1434.000000
793.100830	1445.000000
793.136963	1426.000000
793.172974	1451.000000
793.209045	1442.000000
793.245178	1469.000000
793.281189	1455.000000
793.317261	1427.000000
793.353271	1411.000000
793.389404	1419.000000
793.425476	1430.000000
793.461487	1435.000000
793.497559	1457.000000
793.533630	1448.000000
793.569641	1418.000000
793.605713	1395.000000
793.641785	1389.000000
793.677795	1408.000000
793.713867	1396.000000
793.749878	1416.000000
793.785950	1413.000000
793.822021	1439.000000
793.858032	1408.000000
793.894104	1420.000000
793.930176	1422.000000
793.966187	1445.000000
794.002258	1436.000000
794.038269	1450.000000
794.074280	1428.000000
794.110352	1432.000000
794.146423	1426.000000
794.182373	1427.000000
794.218445	1447.000000
794.254517	1449.000000
794.290466	1439.000000
794.326538	1414.000000
794.362549	1414.000000
794.398560	1406.000000
794.434631	1411.000000
794.470581	1367.000000
794.506653	1370.000000
794.542664	1364.000000
794.578674	1331.000000
794.614685	1324.000000
794.650757	1336.000000
794.686707	1329.000000
794.722778	1355.000000
794.758789	1361.000000
794.794739	1371.000000
794.830811	1369.000000
794.866821	1365.000000
794.902771	1352.000000
794.938843	1376.000000
794.974792	1400.000000
795.010803	1389.000000
795.046814	1388.000000
795.082825	1366.000000
795.118835	1374.000000
795.154846	1365.000000
795.190796	1392.000000
795.226807	1372.000000
795.262817	1361.000000
795.298767	1343.000000
795.334778	1334.000000
795.370850	1311.000000
795.406799	1324.000000
795.442810	1312.000000
795.478821	1337.000000
795.514709	1312.000000
795.550720	1296.000000
795.586670	1269.000000
795.622681	1255.000000
795.658691	1264.000000
795.694641	1278.000000
795.730652	1291.000000
795.766663	1289.000000
795.802551	1273.000000
795.838562	1272.000000
795.874573	1271.000000
795.910522	1279.000000
795.946472	1259.000000
795.982483	1288.000000
796.018433	1266.000000
796.054382	1256.000000
796.090393	1252.000000
796.126282	1262.000000
796.162292	1279.000000
796.198242	1300.000000
796.234192	1301.000000
796.270203	1283.000000
796.306091	1283.000000
796.342041	1289.000000
796.378052	1271.000000
796.413940	1285.000000
796.449951	1302.000000
796.485901	1288.000000
796.521790	1262.000000
796.557800	1266.000000
796.593689	1260.000000
796.629639	1266.000000
796.665649	1288.000000
796.701599	1309.000000
796.737488	1285.000000
796.773437	1273.000000
796.809387	1264.000000
796.845337	1296.000000
796.881287	1295.000000
796.917175	1309.000000
796.953125	1305.000000
796.989075	1309.000000
797.024963	1289.000000
797.060913	1275.000000
797.096863	1281.000000
797.132751	1289.000000
797.168701	1285.000000
797.204590	1275.000000
797.240540	1247.000000
797.276489	1232.000000
797.312439	1225.000000
797.348328	1231.000000
797.384277	1258.000000
797.420166	1269.000000
797.456055	1252.000000
797.492004	1223.000000
797.527893	1226.000000
797.563843	1220.000000
797.599731	1245.000000
797.635620	1243.000000
797.671570	1252.000000
797.707520	1241.000000
797.743347	1213.000000
797.779297	1222.000000
797.815125	1238.000000
797.851074	1251.000000
797.887024	1275.000000
797.922913	1279.000000
797.958801	1274.000000
797.994690	1222.000000
798.030579	1226.000000
798.066467	1230.000000
798.102356	1239.000000
798.138245	1251.000000
798.174133	1236.000000
798.210083	1219.000000
798.245911	1216.000000
798.281799	1215.000000
798.317749	1224.000000
798.353577	1237.000000
798.389465	1248.000000
798.425293	1224.000000
798.461243	1206.000000
798.497131	1206.000000
798.532959	1202.000000
798.568848	1226.000000
798.604736	1225.000000
798.640564	1216.000000
798.676453	1208.000000
798.712402	1199.000000
798.748230	1186.000000
798.784119	1184.000000
798.820007	1204.000000
798.855835	1205.000000
798.891724	1208.000000
798.927551	1194.000000
798.963379	1177.000000
798.999268	1178.000000
799.035095	1184.000000
799.070984	1203.000000
799.106873	1199.000000
799.142700	1212.000000
799.178528	1172.000000
799.214417	1182.000000
799.250244	1173.000000
799.286133	1168.000000
799.321960	1200.000000
799.357788	1197.000000
799.393677	1195.000000
799.429504	1198.000000
799.465332	1186.000000
799.501221	1173.000000
799.537048	1201.000000
799.572876	1197.000000
799.608704	1178.000000
799.644531	1183.000000
799.680359	1153.000000
799.716248	1172.000000
799.752014	1181.000000
799.787903	1196.000000
799.823730	1210.000000
799.859558	1198.000000
799.895386	1163.000000
799.931213	1141.000000
799.967041	1138.000000
800.002869	1147.000000
800.038696	1149.000000
800.074463	1152.000000
800.110352	1143.000000
800.146179	1124.000000
800.181946	1130.000000
800.217773	1127.000000
800.253540	1118.000000
800.289429	1152.000000
800.325256	1131.000000
800.361023	1114.000000
800.396851	1111.000000
800.432678	1102.000000
800.468445	1110.000000
800.504272	1124.000000
800.540100	1103.000000
800.575867	1113.000000
800.611694	1112.000000
800.647461	1081.000000
800.683289	1077.000000
800.719116	1069.000000
800.754883	1092.000000
800.790649	1075.000000
800.826477	1064.000000
800.862244	1093.000000
800.898071	1047.000000
800.933838	1052.000000
800.969604	1045.000000
801.005432	1058.000000
801.041199	1064.000000
801.076965	1058.000000
801.112793	1028.000000
801.148560	1014.000000
801.184326	1024.000000
801.220154	1014.000000
801.255859	1021.000000
801.291687	1031.000000
801.327454	1008.000000
801.363281	1015.000000
801.398987	1006.000000
801.434814	991.000000
801.470520	994.000000
801.506287	980.000000
801.542114	986.000000
801.577820	983.000000
801.613647	967.000000
801.649414	955.000000
801.685120	967.000000
801.720886	991.000000
801.756714	981.000000
801.792419	972.000000
801.828186	968.000000
801.863892	971.000000
801.899719	973.000000
801.935486	963.000000
801.971252	968.000000
802.006958	964.000000
802.042725	960.000000
802.078430	945.000000
802.114197	947.000000
802.149963	973.000000
802.185669	958.000000
802.221436	959.000000
802.257202	957.000000
802.292908	944.000000
802.328674	950.000000
802.364441	935.000000
802.400146	932.000000
802.435913	945.000000
802.471558	947.000000
802.507324	931.000000
802.543091	930.000000
802.578796	942.000000
802.614502	936.000000
802.650269	944.000000
802.685974	936.000000
802.721741	935.000000
802.757446	934.000000
802.793152	923.000000
802.828918	930.000000
802.864624	932.000000
802.900330	953.000000
802.936035	926.000000
802.971802	939.000000
803.007446	922.000000
803.043213	915.000000
803.078857	907.000000
803.114624	889.000000
803.150330	893.000000
803.185974	886.000000
803.221741	891.000000
803.257446	888.000000
803.293152	893.000000
803.328857	888.000000
803.364563	880.000000
803.400208	882.000000
803.435974	891.000000
803.471680	880.000000
803.507324	865.000000
803.543030	869.000000
803.578735	876.000000
803.614441	858.000000
803.650146	860.000000
803.685791	855.000000
803.721497	876.000000
803.757202	842.000000
803.792847	842.000000
803.828552	829.000000
803.864258	842.000000
803.899902	843.000000
803.935608	829.000000
803.971313	836.000000
804.006958	831.000000
804.042664	816.000000
804.078308	827.000000
804.113953	805.000000
804.149658	828.000000
804.185364	815.000000
804.221008	829.000000
804.256714	809.000000
804.292297	810.000000
804.328003	794.000000
804.363708	796.000000
804.399292	803.000000
804.434998	793.000000
804.470703	788.000000
804.506287	791.000000
804.541992	782.000000
804.577637	796.000000
804.613281	789.000000
804.648926	786.000000
804.684570	780.000000
804.720215	773.000000
804.755920	780.000000
804.791565	769.000000
804.827209	777.000000
804.862854	765.000000
804.898437	773.000000
804.934143	770.000000
804.969788	768.000000
805.005371	766.000000
805.041077	773.000000
805.076721	753.000000
805.112305	755.000000
805.147949	764.000000
805.183655	752.000000
805.219238	760.000000
805.254883	752.000000
805.290466	753.000000
805.326111	757.000000
805.361755	751.000000
805.397400	768.000000
805.432983	754.000000
805.468628	755.000000
805.504211	746.000000
805.539856	742.000000
805.575500	743.000000
805.611084	752.000000
805.646729	747.000000
805.682373	742.000000
805.717957	747.000000
805.753601	745.000000
805.789246	730.000000
805.824768	745.000000
805.860413	758.000000
805.895996	742.000000
805.931641	736.000000
805.967224	739.000000
806.002869	732.000000
806.038452	743.000000
806.074036	737.000000
806.109619	731.000000
806.145264	718.000000
806.180847	726.000000
806.216431	715.000000
806.252014	720.000000
806.287659	716.000000
806.323181	714.000000
806.358826	711.000000
806.394409	704.000000
806.429993	702.000000
806.465576	704.000000
806.501160	686.000000
806.536743	685.000000
806.572327	693.000000
806.607910	711.000000
806.643494	711.000000
806.679077	691.000000
806.714661	693.000000
806.750244	675.000000
806.785828	669.000000
806.821350	669.000000
806.856934	677.000000
806.892517	667.000000
806.928101	668.000000
806.963684	663.000000
806.999268	673.000000
807.034790	651.000000
807.070374	659.000000
807.105896	653.000000
807.141479	650.000000
807.177063	658.000000
807.212585	636.000000
807.248169	631.000000
807.283752	653.000000
807.319275	641.000000
807.354858	650.000000
807.390381	637.000000
807.425903	634.000000
807.461487	634.000000
807.497070	627.000000
807.532593	617.000000
807.568115	623.000000
807.603699	617.000000
807.639221	619.000000
807.674744	617.000000
807.710266	625.000000
807.745850	618.000000
807.781372	621.000000
807.816895	604.000000
807.852417	616.000000
807.888000	614.000000
807.923523	609.000000
807.959045	607.000000
807.994629	602.000000
808.030090	593.000000
808.065613	600.000000
808.101135	608.000000
808.136658	609.000000
808.172241	591.000000
808.207764	605.000000
808.243225	600.000000
808.278809	593.000000
808.314270	601.000000
808.349792	590.000000
808.385315	583.000000
808.420837	591.000000
808.456360	582.000000
808.491882	585.000000
808.527344	579.000000
808.562866	597.000000
808.598389	588.000000
808.633850	586.000000
808.669434	572.000000
808.704895	576.000000
808.740417	581.000000
808.775940	578.000000
808.811462	580.000000
808.846924	567.000000
808.882385	563.000000
808.917847	556.000000
808.953369	557.000000
808.988892	545.000000
809.024353	564.000000
809.059875	564.000000
809.095398	561.000000
809.130798	545.000000
809.166321	554.000000
809.201843	543.000000
809.237305	535.000000
809.272766	545.000000
809.308228	533.000000
809.343750	535.000000
809.379211	538.000000
809.414734	531.000000
809.450134	543.000000
809.485657	523.000000
809.521118	528.000000
809.556580	522.000000
809.592102	528.000000
809.627502	509.000000
809.663025	517.000000
809.698486	519.000000
809.733887	504.000000
809.769409	521.000000
809.804871	498.000000
809.840271	501.000000
809.875793	506.000000
809.911194	516.000000
809.946655	505.000000
809.982178	495.000000
810.017639	502.000000
810.053040	501.000000
810.088501	495.000000
810.123901	490.000000
810.159424	495.000000
810.194885	485.000000
810.230286	489.000000
810.265747	487.000000
810.301208	486.000000
810.336609	489.000000
810.372070	487.000000
810.407532	480.000000
810.442932	487.000000
810.478394	490.000000
810.513794	483.000000
810.549255	479.000000
810.584717	480.000000
810.620117	483.000000
810.655518	479.000000
810.690979	476.000000
810.726379	474.000000
810.761841	471.000000
810.797302	470.000000
810.832642	462.000000
810.868103	473.000000
810.903564	458.000000
810.938904	458.000000
810.974365	457.000000
811.009827	464.000000
811.045166	457.000000
811.080627	448.000000
811.115967	457.000000
811.151428	462.000000
811.186829	446.000000
811.222229	450.000000
811.257629	436.000000
811.293091	458.000000
811.328430	466.000000
811.363892	445.000000
811.399292	449.000000
811.434631	439.000000
811.470093	446.000000
811.505493	448.000000
811.540833	445.000000
811.576294	442.000000
811.611694	437.000000
811.647034	436.000000
811.682434	431.000000
811.717773	437.000000
811.753235	445.000000
811.788635	429.000000
811.823975	438.000000
811.859375	448.000000
811.894775	430.000000
811.930115	437.000000
811.965515	434.000000
812.000916	434.000000
812.036255	429.000000
812.071655	434.000000
812.106995	428.000000
812.142395	419.000000
812.177795	431.000000
812.213196	428.000000
812.248474	430.000000
812.283875	418.000000
812.319214	426.000000
812.354614	426.000000
812.390015	421.000000
812.425293	419.000000
812.460693	410.000000
812.496094	417.000000
812.531433	405.000000
812.566772	409.000000
812.602173	410.000000
812.637451	406.000000
812.672852	402.000000
812.708191	417.000000
812.743530	402.000000
812.778931	399.000000
812.814270	399.000000
812.849609	400.000000
812.884949	397.000000
812.920227	391.000000
812.955627	406.000000
812.990967	397.000000
813.026306	396.000000
813.061646	384.000000
813.096985	376.000000
813.132324	385.000000
813.167664	376.000000
813.203003	379.000000
813.238281	365.000000
813.273682	377.000000
813.308960	377.000000
813.344299	371.000000
813.379639	377.000000
813.414978	375.000000
813.450256	369.000000
813.485596	367.000000
813.520874	368.000000
813.556213	366.000000
813.591614	365.000000
813.626831	361.000000
813.662170	365.000000
813.697510	378.000000
813.732788	364.000000
813.768127	374.000000
813.803467	365.000000
813.838745	361.000000
813.874084	362.000000
813.909363	363.000000
813.944641	359.000000
813.979980	350.000000
814.015320	361.000000
814.050598	357.000000
814.085876	361.000000
814.121155	355.000000
814.156494	350.000000
814.191772	357.000000
814.227051	351.000000
814.262390	355.000000
814.297668	350.000000
814.332947	354.000000
814.368225	342.000000
814.403564	346.000000
814.438782	340.000000
814.474121	341.000000
814.509338	346.000000
814.544617	349.000000
814.579956	341.000000
814.615173	352.000000
814.650513	349.000000
814.685791	342.000000
814.721008	342.000000
814.756348	343.000000
814.791626	335.000000
814.826843	335.000000
814.862122	335.000000
814.897400	329.000000
814.932678	335.000000
814.967957	327.000000
815.003235	334.000000
815.038452	321.000000
815.073730	325.000000
815.108948	334.000000
815.144226	330.000000
815.179504	333.000000
815.214722	323.000000
815.250000	321.000000
815.285278	330.000000
815.320496	319.000000
815.355774	322.000000
815.391052	321.000000
815.426270	317.000000
815.461487	320.000000
815.496765	316.000000
815.531982	313.000000
815.567261	313.000000
815.602539	320.000000
815.637695	310.000000
815.672974	317.000000
815.708191	317.000000
815.743408	317.000000
815.778687	315.000000
815.813904	318.000000
815.849121	310.000000
815.884399	303.000000
815.919556	300.000000
815.954834	302.000000
815.990051	309.000000
816.025269	313.000000
816.060486	308.000000
816.095703	306.000000
816.130920	307.000000
816.166199	299.000000
816.201416	306.000000
816.236572	305.000000
816.271851	300.000000
816.307007	305.000000
816.342224	287.000000
816.377441	300.000000
816.412659	283.000000
816.447876	296.000000
816.483093	299.000000
816.518250	302.000000
816.553467	290.000000
816.588745	294.000000
816.623901	280.000000
816.659119	279.000000
816.694275	287.000000
816.729492	283.000000
816.764709	314.000000
816.799927	286.000000
816.835083	286.000000
816.870300	285.000000
816.905457	281.000000
816.940674	285.000000
816.975830	277.000000
817.010986	278.000000
817.046204	281.000000
817.081421	276.000000
817.116577	268.000000
817.151733	284.000000
817.186951	284.000000
817.222107	278.000000
817.257324	280.000000
817.292419	280.000000
817.327637	276.000000
817.362854	281.000000
817.398010	272.000000
817.433167	273.000000
817.468323	271.000000
817.503479	272.000000
817.538635	279.000000
817.573853	280.000000
817.608948	273.000000
817.644165	275.000000
817.679321	268.000000
817.714478	271.000000
817.749634	279.000000
817.784790	285.000000
817.819946	277.000000
817.855103	263.000000
817.890198	264.000000
817.925415	255.000000
817.960571	273.000000
817.995667	272.000000
818.030823	271.000000
818.066040	267.000000
818.101135	267.000000
818.136292	267.000000
818.171448	265.000000
818.206543	267.000000
818.241699	271.000000
818.276855	271.000000
818.311951	266.000000
818.347107	258.000000
818.382263	269.000000
818.417358	269.000000
818.452515	277.000000
818.487610	273.000000
818.522766	260.000000
818.557922	266.000000
818.593018	267.000000
818.628113	260.000000
818.663269	253.000000
818.698364	263.000000
818.733521	260.000000
818.768677	265.000000
818.803711	255.000000
818.838867	255.000000
818.874023	253.000000
818.909058	254.000000
818.944214	258.000000
818.979370	253.000000
819.014404	253.000000
819.049561	248.000000
819.084595	256.000000
819.119751	246.000000
819.154846	256.000000
819.189941	254.000000
819.225037	249.000000
819.260193	237.000000
819.295227	246.000000
819.330322	237.000000
819.365479	241.000000
819.400513	271.000000
819.435608	240.000000
819.470764	239.000000
819.505798	239.000000
819.540894	241.000000
819.575989	243.000000
819.611084	251.000000
819.646179	247.000000
819.681213	245.000000
819.716309	242.000000
819.751404	244.000000
819.786438	248.000000
819.821533	234.000000
819.856628	240.000000
819.891663	247.000000
819.926758	248.000000
819.961853	251.000000
819.996887	238.000000
820.031982	237.000000
820.067017	237.000000
820.102112	267.000000
820.137207	234.000000
820.172302	255.000000
820.207275	235.000000
820.242371	237.000000
820.277405	232.000000
820.312500	234.000000
820.347534	233.000000
820.382568	245.000000
820.417664	234.000000
820.452759	232.000000
820.487732	229.000000
820.522827	231.000000
820.557861	223.000000
820.592896	230.000000
820.627930	231.000000
820.662964	235.000000
820.698059	233.000000
820.733093	234.000000
820.768127	233.000000
820.803162	232.000000
820.838196	230.000000
820.873230	228.000000
820.908264	228.000000
820.943298	224.000000
820.978333	227.000000
821.013367	233.000000
821.048401	235.000000
821.083435	233.000000
821.118469	220.000000
821.153503	235.000000
821.188477	227.000000
821.223511	225.000000
821.258484	225.000000
821.293579	230.000000
821.328613	218.000000
821.363647	227.000000
821.398621	211.000000
821.433655	223.000000
821.468628	239.000000
821.503662	225.000000
821.538696	227.000000
821.573669	220.000000
821.608704	229.000000
821.643677	221.000000
821.678650	225.000000
821.713684	231.000000
821.748718	223.000000
821.783691	225.000000
821.818726	224.000000
821.853638	225.000000
821.888672	223.000000
821.923706	218.000000
821.958618	219.000000
821.993652	216.000000
822.028687	221.000000
822.063599	223.000000
822.098633	225.000000
822.133667	211.000000
822.168579	221.000000
822.203613	217.000000
822.238586	218.000000
822.273560	218.000000
822.308533	216.000000
822.343567	215.000000
822.378479	218.000000
822.413452	210.000000
822.448425	214.000000
822.483398	220.000000
822.518372	223.000000
822.553345	204.000000
822.588318	221.000000
822.623291	210.000000
822.658203	208.000000
822.693237	213.000000
822.728210	211.000000
822.763123	210.000000
822.798096	209.000000
822.833069	210.000000
822.867981	209.000000
822.902954	211.000000
822.937927	213.000000
822.972900	217.000000
823.007874	204.000000
823.042725	214.000000
823.077698	224.000000
823.112671	209.000000
823.147583	213.000000
823.182556	211.000000
823.217529	211.000000
823.252441	207.000000
823.287415	223.000000
823.322388	209.000000
823.357239	208.000000
823.392212	215.000000
823.427185	217.000000
823.462097	209.000000
823.497009	209.000000
823.531982	209.000000
823.566895	209.000000
823.601807	205.000000
823.636719	206.000000
823.671631	207.000000
823.706604	206.000000
823.741455	210.000000
823.776428	196.000000
823.811340	207.000000
823.846252	217.000000
823.881165	214.000000
823.916138	205.000000
823.950989	215.000000
823.985901	202.000000
824.020813	205.000000
824.055725	204.000000
824.090637	202.000000
824.125610	204.000000
824.160461	208.000000
824.195374	203.000000
824.230225	208.000000
824.265198	198.000000
824.300110	202.000000
824.334961	210.000000
824.369873	201.000000
824.404785	208.000000
824.439636	206.000000
824.474548	193.000000
824.509460	197.000000
824.544312	207.000000
824.579224	207.000000
824.614075	206.000000
824.648987	199.000000
824.683899	198.000000
824.718811	200.000000
824.753662	200.000000
824.788574	208.000000
824.823364	205.000000
824.858276	196.000000
824.893188	204.000000
824.928040	211.000000
824.962952	197.000000
824.997803	208.000000
825.032654	205.000000
825.067566	205.000000
825.102417	198.000000
825.137268	200.000000
825.172119	198.000000
825.206970	199.000000
825.241882	198.000000
825.276733	200.000000
825.311646	198.000000
825.346436	197.000000
825.381348	193.000000
825.416138	204.000000
825.450989	197.000000
825.485901	191.000000
825.520691	190.000000
825.555542	193.000000
825.590454	197.000000
825.625244	195.000000
825.660095	202.000000
825.695007	199.000000
825.729797	200.000000
825.764648	191.000000
825.799438	195.000000
825.834290	197.000000
825.869202	195.000000
825.903992	194.000000
825.938843	191.000000
825.973694	192.000000
826.008484	207.000000
826.043335	187.000000
826.078186	189.000000
826.112976	199.000000
826.147827	202.000000
826.182678	206.000000
826.217468	189.000000
826.252319	199.000000
826.287109	191.000000
826.321899	200.000000
826.356750	195.000000
826.391541	188.000000
826.426392	199.000000
826.461182	194.000000
826.495972	188.000000
826.530823	185.000000
826.565613	194.000000
826.600403	193.000000
826.635254	195.000000
826.670044	186.000000
826.704834	186.000000
826.739685	191.000000
826.774475	202.000000
826.809265	195.000000
826.844055	192.000000
826.878906	202.000000
826.913635	196.000000
826.948425	197.000000
826.983215	196.000000
827.018005	203.000000
827.052856	192.000000
827.087585	198.000000
827.122375	185.000000
827.157227	190.000000
827.191956	207.000000
827.226746	186.000000
827.261536	196.000000
827.296265	188.000000
827.331116	189.000000
827.365906	196.000000
827.400635	188.000000
827.435425	181.000000
827.470215	193.000000
827.504944	190.000000
827.539734	194.000000
827.574463	187.000000
827.609253	198.000000
827.644043	195.000000
827.678772	194.000000
827.713562	191.000000
827.748352	187.000000
827.783081	187.000000
827.817871	191.000000
827.852600	187.000000
827.887329	184.000000
827.922119	178.000000
827.956848	188.000000
827.991638	203.000000
828.026367	186.000000
828.061157	188.000000
828.095886	186.000000
828.130615	205.000000
828.165344	182.000000
828.200073	187.000000
828.234863	184.000000
828.269592	190.000000
828.304321	190.000000
828.339111	189.000000
828.373779	186.000000
828.408569	194.000000
828.443298	194.000000
828.477966	184.000000
828.512756	188.000000
828.547424	186.000000
828.582214	188.000000
828.616943	184.000000
828.651672	187.000000
828.686340	192.000000
828.721130	187.000000
828.755798	189.000000
828.790527	191.000000
828.825256	188.000000
828.859924	186.000000
828.894714	193.000000
828.929443	197.000000
828.964111	186.000000
828.998840	191.000000
829.033569	186.000000
829.068237	186.000000
829.102966	185.000000
829.137634	191.000000
829.172363	188.000000
829.207092	193.000000
829.241821	184.000000
829.276489	177.000000
829.311157	187.000000
829.345825	184.000000
829.380554	193.000000
829.415283	183.000000
829.449951	178.000000
829.484619	197.000000
829.519348	190.000000
829.554016	187.000000
829.588745	182.000000
829.623413	184.000000
829.658081	191.000000
829.692749	183.000000
829.727417	190.000000
829.762146	185.000000
829.796814	180.000000
829.831482	185.000000
829.866150	182.000000
829.900879	186.000000
829.935486	189.000000
829.970154	185.000000
830.004883	195.000000
830.039490	187.000000
830.074219	176.000000
830.108887	185.000000
830.143494	184.000000
830.178223	178.000000
830.212891	182.000000
830.247498	187.000000
830.282166	191.000000
830.316772	194.000000
830.351501	180.000000
830.386169	187.000000
830.420776	182.000000
830.455444	188.000000
830.490112	179.000000
830.524719	181.000000
830.559387	187.000000
830.594055	188.000000
830.628662	187.000000
830.663330	189.000000
830.697998	194.000000
830.732605	186.000000
830.767273	193.000000
830.801941	187.000000
830.836487	192.000000
830.871155	190.000000
830.905762	188.000000
830.940430	175.000000
830.975098	181.000000
831.009644	184.000000
831.044312	192.000000
831.078979	187.000000
831.113525	176.000000
831.148193	185.000000
831.182861	186.000000
831.217407	189.000000
831.252075	201.000000
831.286621	182.000000
831.321289	180.000000
831.355896	183.000000
831.390564	196.000000
831.425110	183.000000
831.459778	193.000000
831.494324	198.000000
831.528931	188.000000
831.563599	190.000000
831.598145	177.000000
831.632751	183.000000
831.667419	187.000000
831.701965	187.000000
831.736572	187.000000
831.771179	179.000000
831.805786	183.000000
831.840393	187.000000
831.874939	178.000000
831.909546	190.000000
831.944153	177.000000
831.978760	183.000000
832.013306	181.000000
832.047913	190.000000
832.082458	193.000000
832.117065	177.000000
832.151672	194.000000
832.186218	183.000000
832.220825	192.000000
832.255432	170.000000
832.289978	181.000000
832.324585	186.000000
832.359192	187.000000
832.393677	185.000000
832.428284	189.000000
832.462830	184.000000
832.497437	184.000000
832.531982	193.000000
832.566589	184.000000
832.601135	189.000000
832.635681	179.000000
832.670227	181.000000
832.704773	191.000000
832.739380	187.000000
832.773926	181.000000
832.808472	181.000000
832.843079	185.000000
832.877563	189.000000
832.912170	178.000000
832.946716	176.000000
832.981201	189.000000
833.015808	193.000000
833.050293	184.000000
833.084839	180.000000
833.119446	184.000000
833.153992	191.000000
833.188477	177.000000
833.223022	181.000000
833.257568	184.000000
833.292114	194.000000
833.326660	193.000000
833.361145	183.000000
833.395691	173.000000
833.430237	184.000000
833.464783	185.000000
833.499329	180.000000
833.533875	175.000000
833.568359	189.000000
833.602905	189.000000
833.637390	189.000000
833.671875	184.000000
833.706421	184.000000
833.740906	176.000000
833.775452	179.000000
833.809998	179.000000
833.844482	191.000000
833.879028	186.000000
833.913513	179.000000
833.947998	191.000000
833.982544	183.000000
834.017090	183.000000
834.051514	174.000000
834.086060	189.000000
834.120544	183.000000
834.155029	186.000000
834.189575	185.000000
834.223999	187.000000
834.258545	189.000000
834.293030	186.000000
834.327515	187.000000
834.362000	180.000000
834.396545	189.000000
834.430969	183.000000
834.465454	190.000000
834.500000	178.000000
834.534424	186.000000
834.568970	179.000000
834.603455	176.000000
834.637878	180.000000
834.672363	184.000000
834.706909	187.000000
834.741333	182.000000
834.775818	183.000000
834.810242	182.000000
834.844727	185.000000
834.879211	180.000000
834.913635	183.000000
834.948181	186.000000
834.982666	187.000000
835.017090	181.000000
835.051575	189.000000
835.086060	178.000000
835.120483	191.000000
835.154907	180.000000
835.189331	185.000000
835.223816	182.000000
835.258301	179.000000
835.292786	180.000000
835.327209	192.000000
835.361694	174.000000
835.396057	185.000000
835.430542	186.000000
835.465027	182.000000
835.499390	180.000000
835.533875	206.000000
835.568359	178.000000
835.602722	180.000000
835.637207	185.000000
835.671692	177.000000
835.706055	199.000000
835.740540	184.000000
835.774902	180.000000
835.809387	190.000000
835.843811	179.000000
835.878235	192.000000
835.912659	178.000000
835.947083	184.000000
835.981506	183.000000
836.015930	178.000000
836.050354	194.000000
836.084778	192.000000
836.119202	190.000000
836.153625	201.000000
836.187988	181.000000
836.222473	181.000000
836.256897	187.000000
836.291260	181.000000
836.325684	186.000000
836.360046	183.000000
836.394470	186.000000
836.428894	190.000000
836.463318	183.000000
836.497681	187.000000
836.532104	195.000000
836.566467	182.000000
836.600891	183.000000
836.635315	193.000000
836.669678	190.000000
836.704102	188.000000
836.738525	187.000000
836.772888	172.000000
836.807251	180.000000
836.841675	183.000000
836.876038	179.000000
836.910461	176.000000
836.944763	190.000000
836.979187	177.000000
837.013611	187.000000
837.047974	175.000000
837.082336	194.000000
837.116699	185.000000
837.151062	185.000000
837.185486	179.000000
837.219849	183.000000
837.254211	191.000000
837.288574	185.000000
837.322937	175.000000
837.357300	175.000000
837.391663	198.000000
837.426086	189.000000
837.460388	189.000000
837.494751	190.000000
837.529114	178.000000
837.563477	192.000000
837.597839	189.000000
837.632141	182.000000
837.666565	182.000000
837.700928	189.000000
837.735229	187.000000
837.769592	190.000000
837.803955	188.000000
837.838257	184.000000
837.872620	184.000000
837.906982	191.000000
837.941284	184.000000
837.975647	188.000000
838.010010	191.000000
838.044312	185.000000
838.078674	187.000000
838.112976	183.000000
838.147339	188.000000
838.181702	185.000000
838.216003	194.000000
838.250366	186.000000
838.284668	192.000000
838.318970	177.000000
838.353333	185.000000
838.387634	185.000000
838.421936	186.000000
838.456299	186.000000
838.490601	193.000000
838.524902	189.000000
838.559265	188.000000
838.593567	186.000000
838.627869	178.000000
838.662170	187.000000
838.696472	181.000000
838.730774	185.000000
838.765137	187.000000
838.799377	171.000000
838.833740	186.000000
838.868042	189.000000
838.902283	179.000000
838.936646	190.000000
838.970947	185.000000
839.005188	190.000000
839.039551	180.000000
839.073792	191.000000
839.108093	184.000000
839.142395	197.000000
839.176697	179.000000
839.210937	188.000000
839.245300	197.000000
839.279541	179.000000
839.313843	183.000000
839.348145	185.000000
839.382385	189.000000
839.416687	192.000000
839.450989	189.000000
839.485229	185.000000
839.519531	184.000000
839.553833	193.000000
839.588013	186.000000
839.622314	188.000000
839.656555	186.000000
839.690857	183.000000
839.725159	185.000000
839.759460	186.000000
839.793640	181.000000
839.827942	187.000000
839.862183	181.000000
839.896423	190.000000
839.930725	195.000000
839.964966	196.000000
839.999207	191.000000
840.033508	194.000000
840.067688	179.000000
840.101990	195.000000
840.136230	181.000000
840.170471	191.000000
840.204712	178.000000
840.238953	183.000000
840.273193	186.000000
840.307434	189.000000
840.341736	180.000000
840.375916	184.000000
840.410217	178.000000
840.444397	190.000000
840.478638	189.000000
840.512878	192.000000
840.547119	182.000000
840.581360	192.000000
840.615601	192.000000
840.649780	193.000000
840.684021	186.000000
840.718262	190.000000
840.752441	190.000000
840.786682	188.000000
840.820862	183.000000
840.855103	192.000000
840.889343	185.000000
840.923584	189.000000
840.957764	188.000000
840.992004	190.000000
841.026184	198.000000
841.060425	187.000000
841.094666	180.000000
841.128845	188.000000
841.163025	186.000000
841.197266	188.000000
841.231445	180.000000
841.265686	184.000000
841.299866	183.000000
841.334045	191.000000
841.368286	186.000000
841.402405	193.000000
841.436646	189.000000
841.470825	187.000000
841.505005	185.000000
841.539185	184.000000
841.573425	183.000000
841.607544	187.000000
841.641785	187.000000
841.675964	179.000000
841.710144	189.000000
841.744324	183.000000
841.778503	185.000000
841.812683	185.000000
841.846863	196.000000
841.881042	192.000000
841.915222	187.000000
841.949402	195.000000
841.983521	177.000000
842.017700	182.000000
842.051880	183.000000
842.086060	189.000000
842.120239	190.000000
842.154419	178.000000
842.188538	187.000000
842.222717	181.000000
842.256897	195.000000
842.291016	182.000000
842.325195	185.000000
842.359375	193.000000
842.393494	195.000000
842.427673	184.000000
842.461853	190.000000
842.495911	193.000000
842.530090	189.000000
842.564209	179.000000
842.598389	190.000000
842.632568	182.000000
842.666626	188.000000
842.700806	184.000000
842.734985	186.000000
842.769043	186.000000
842.803223	185.000000
842.837402	182.000000
842.871460	183.000000
842.905640	194.000000
842.939697	183.000000
842.973877	188.000000
843.007996	193.000000
843.042175	195.000000
843.076233	183.000000
843.110413	188.000000
843.144470	194.000000
843.178589	187.000000
843.212769	188.000000
843.246826	190.000000
843.280945	184.000000
843.315125	187.000000
843.349182	183.000000
843.383301	196.000000
843.417419	203.000000
843.451538	189.000000
843.485657	183.000000
843.519714	187.000000
843.553833	187.000000
843.587952	185.000000
843.622070	185.000000
843.656128	193.000000
843.690247	182.000000
843.724304	189.000000
843.758423	187.000000
843.792542	186.000000
843.826599	185.000000
843.860718	186.000000
843.894836	179.000000
843.928894	188.000000
843.963013	188.000000
843.997070	182.000000
844.031128	182.000000
844.065247	190.000000
844.099304	185.000000
844.133362	187.000000
844.167480	186.000000
844.201599	189.000000
844.235596	185.000000
844.269714	185.000000
844.303711	182.000000
844.337830	180.000000
844.371948	188.000000
844.405945	183.000000
844.440063	180.000000
844.474121	200.000000
844.508118	183.000000
844.542236	185.000000
844.576294	188.000000
844.610352	179.000000
844.644409	184.000000
844.678406	179.000000
844.712524	191.000000
844.746582	195.000000
844.780640	189.000000
844.814636	184.000000
844.848755	197.000000
844.882751	185.000000
844.916809	187.000000
844.950867	192.000000
844.984863	195.000000
845.018921	184.000000
845.052979	181.000000
845.086975	187.000000
845.121033	179.000000
845.155090	183.000000
845.189087	193.000000
845.223145	184.000000
845.257141	185.000000
845.291199	188.000000
845.325256	190.000000
845.359253	181.000000
845.393250	199.000000
845.427307	181.000000
845.461304	192.000000
845.495361	183.000000
845.529358	198.000000
845.563354	181.000000
845.597412	188.000000
845.631409	190.000000
845.665405	195.000000
845.699463	186.000000
845.733459	186.000000
845.767456	192.000000
845.801453	189.000000
845.835449	189.000000
845.869446	193.000000
845.903503	193.000000
845.937439	187.000000
845.971497	189.000000
846.005493	185.000000
846.039429	190.000000
846.073486	194.000000
846.107483	185.000000
846.141418	183.000000
846.175476	183.000000
846.209473	199.000000
846.243408	183.000000
846.277405	189.000000
846.311401	184.000000
846.345337	186.000000
846.379395	191.000000
846.413330	188.000000
846.447327	192.000000
846.481323	181.000000
846.515259	184.000000
846.549255	185.000000
846.583252	188.000000
846.617187	187.000000
846.651184	185.000000
846.685120	185.000000
846.719055	196.000000
846.753052	191.000000
846.786987	191.000000
846.820984	182.000000
846.854980	194.000000
846.888916	182.000000
846.922852	190.000000
846.956848	195.000000
846.990723	182.000000
847.024719	189.000000
847.058716	185.000000
847.092590	191.000000
847.126587	188.000000
847.160522	183.000000
847.194458	194.000000
847.228455	183.000000
847.262390	182.000000
847.296265	185.000000
847.330261	193.000000
847.364136	180.000000
847.398132	187.000000
847.432068	188.000000
847.466003	184.000000
847.499939	185.000000
847.533875	191.000000
847.567749	183.000000
847.601746	187.000000
847.635681	189.000000
847.669556	180.000000
847.703491	189.000000
847.737427	201.000000
847.771301	180.000000
847.805237	186.000000
847.839233	187.000000
847.873108	186.000000
847.907043	187.000000
847.940918	194.000000
847.974854	181.000000
848.008789	195.000000
848.042664	189.000000
848.076538	189.000000
848.110474	192.000000
848.144348	190.000000
848.178284	181.000000
848.212219	188.000000
848.246094	185.000000
848.279968	190.000000
848.313904	187.000000
848.347778	189.000000
848.381653	183.000000
848.415588	186.000000
848.449463	185.000000
848.483337	189.000000
848.517212	193.000000
848.551086	189.000000
848.585022	180.000000
848.618835	200.000000
848.652771	184.000000
848.686646	186.000000
848.720520	198.000000
848.754395	192.000000
848.788330	190.000000
848.822144	192.000000
848.856018	186.000000
848.889954	195.000000
848.923767	190.000000
848.957642	183.000000
848.991577	190.000000
849.025391	184.000000
849.059265	187.000000
849.093079	181.000000
849.126953	185.000000
849.160828	191.000000
849.194641	192.000000
849.228577	183.000000
849.262451	190.000000
849.296265	182.000000
849.330139	185.000000
849.364014	188.000000
849.397827	187.000000
849.431702	184.000000
849.465515	193.000000
849.499329	175.000000
849.533203	181.000000
849.567078	178.000000
849.600891	185.000000
849.634766	184.000000
849.668518	188.000000
849.702393	184.000000
849.736267	181.000000
849.770020	199.000000
849.803894	188.000000
849.837769	186.000000
849.871521	191.000000
849.905396	191.000000
849.939270	185.000000
849.973022	185.000000
850.006897	191.000000
850.040710	192.000000
850.074524	193.000000
850.108337	181.000000
850.142151	192.000000
850.175964	195.000000
850.209778	185.000000
850.243530	178.000000
850.277405	194.000000
850.311218	187.000000
850.344971	189.000000
850.378845	194.000000
850.412659	182.000000
850.446411	190.000000
850.480225	181.000000
850.514038	194.000000
850.547791	190.000000
850.581665	192.000000
850.615417	180.000000
850.649231	186.000000
850.683044	182.000000
850.716858	190.000000
850.750610	184.000000
850.784424	189.000000
850.818176	182.000000
850.851929	185.000000
850.885742	183.000000
850.919495	186.000000
850.953308	191.000000
850.987122	197.000000
851.020874	178.000000
851.054626	180.000000
851.088440	189.000000
851.122192	192.000000
851.156006	187.000000
851.189697	182.000000
851.223511	181.000000
851.257263	191.000000
851.291077	190.000000
851.324829	181.000000
851.358582	184.000000
851.392334	187.000000
851.426086	183.000000
851.459900	196.000000
851.493591	187.000000
851.527344	185.000000
851.561157	183.000000
851.594849	194.000000
851.628662	186.000000
851.662415	199.000000
851.696106	191.000000
851.729858	196.000000
851.763611	178.000000
851.797363	191.000000
851.831116	180.000000
851.864868	192.000000
851.898560	191.000000
851.932312	183.000000
851.966064	191.000000
851.999817	192.000000
852.033569	185.000000
852.067261	193.000000
852.101013	184.000000
852.134766	190.000000
852.168457	179.000000
852.202209	193.000000
852.235901	180.000000
852.269592	191.000000
852.303345	199.000000
852.337036	191.000000
852.370789	186.000000
852.404541	193.000000
852.438171	183.000000
852.471924	185.000000
852.505676	182.000000
852.539307	189.000000
852.573059	186.000000
852.606812	183.000000
852.640442	189.000000
852.674194	190.000000
852.707886	200.000000
852.741577	192.000000
852.775269	182.000000
852.809021	182.000000
852.842651	190.000000
852.876404	190.000000
852.910034	187.000000
852.943787	190.000000
852.977478	193.000000
853.011108	184.000000
853.044861	185.000000
853.078552	190.000000
853.112183	189.000000
853.145874	186.000000
853.179626	181.000000
853.213257	189.000000
853.246948	183.000000
853.280640	194.000000
853.314270	190.000000
853.347961	190.000000
853.381653	191.000000
853.415283	192.000000
853.448975	186.000000
853.482605	188.000000
853.516296	188.000000
853.549988	181.000000
853.583618	191.000000
853.617310	190.000000
853.651001	187.000000
853.684631	188.000000
853.718323	184.000000
853.751953	194.000000
853.785583	181.000000
853.819275	191.000000
853.852966	191.000000
853.886536	179.000000
853.920227	185.000000
853.953918	193.000000
853.987488	188.000000
854.021179	191.000000
854.054749	196.000000
854.088440	192.000000
854.122131	180.000000
854.155701	191.000000
854.189331	185.000000
854.223022	192.000000
854.256592	190.000000
854.290283	185.000000
854.323914	191.000000
854.357483	188.000000
854.391174	187.000000
854.424744	198.000000
854.458374	185.000000
854.492065	200.000000
854.525696	186.000000
854.559265	194.000000
854.592896	196.000000
854.626465	189.000000
854.660095	183.000000
854.693787	189.000000
854.727356	184.000000
854.760986	191.000000
854.794617	187.000000
854.828186	182.000000
854.861816	184.000000
854.895447	190.000000
854.929016	189.000000
854.962585	187.000000
854.996155	194.000000
855.029785	194.000000
855.063416	185.000000
855.097046	191.000000
855.130615	184.000000
855.164185	190.000000
855.197754	189.000000
855.231384	191.000000
855.264954	181.000000
855.298523	192.000000
855.332153	190.000000
855.365723	197.000000
855.399292	183.000000
855.432922	185.000000
855.466492	186.000000
855.500061	181.000000
855.533630	189.000000
855.567200	191.000000
855.600769	187.000000
855.634338	190.000000
855.667969	190.000000
855.701477	185.000000
855.735046	184.000000
855.768616	180.000000
855.802185	187.000000
855.835754	200.000000
855.869324	178.000000
855.902893	189.000000
855.936401	193.000000
855.969971	191.000000
856.003540	181.000000
856.037109	189.000000
856.070618	183.000000
856.104187	182.000000
856.137695	184.000000
856.171265	172.000000
856.204834	190.000000
856.238403	189.000000
856.271912	182.000000
856.305481	187.000000
856.338989	183.000000
856.372559	186.000000
856.406128	189.000000
856.439636	191.000000
856.473145	187.000000
856.506653	191.000000
856.540222	187.000000
856.573792	191.000000
856.607300	193.000000
856.640808	183.000000
856.674377	189.000000
856.707825	214.000000
856.741394	191.000000
856.774902	181.000000
856.808472	182.000000
856.841980	190.000000
856.875488	197.000000
856.908936	178.000000
856.942505	188.000000
856.976013	182.000000
857.009521	182.000000
857.043030	191.000000
857.076477	189.000000
857.110046	191.000000
857.143555	188.000000
857.177063	185.000000
857.210571	187.000000
857.244080	178.000000
857.277527	193.000000
857.311035	190.000000
857.344543	192.000000
857.378052	183.000000
857.411499	195.000000
857.445068	199.000000
857.478516	189.000000
857.512024	184.000000
857.545532	185.000000
857.578979	187.000000
857.612427	187.000000
857.645874	184.000000
857.679382	191.000000
857.712891	195.000000
857.746399	187.000000
857.779846	191.000000
857.813354	188.000000
857.846741	186.000000
857.880249	180.000000
857.913757	189.000000
857.947266	186.000000
857.980652	190.000000
858.014160	183.000000
858.047546	187.000000
858.081055	182.000000
858.114563	198.000000
858.147949	182.000000
858.181458	190.000000
858.214844	181.000000
858.248352	181.000000
858.281799	189.000000
858.315308	197.000000
858.348694	188.000000
858.382141	196.000000
858.415588	189.000000
858.449036	195.000000
858.482483	185.000000
858.515930	185.000000
858.549377	185.000000
858.582825	194.000000
858.616211	187.000000
858.649658	192.000000
858.683105	177.000000
858.716553	187.000000
858.750000	175.000000
858.783386	183.000000
858.816833	179.000000
858.850281	195.000000
858.883728	187.000000
858.917114	190.000000
858.950562	195.000000
858.983948	197.000000
859.017395	191.000000
859.050781	189.000000
859.084167	182.000000
859.117615	181.000000
859.151062	189.000000
859.184448	185.000000
859.217834	189.000000
859.251282	186.000000
859.284668	184.000000
859.318054	182.000000
859.351440	187.000000
859.384888	191.000000
859.418274	185.000000
859.451721	175.000000
859.485046	191.000000
859.518494	186.000000
859.551819	187.000000
859.585266	190.000000
859.618652	193.000000
859.652039	177.000000
859.685425	180.000000
859.718811	180.000000
859.752197	179.000000
859.785583	192.000000
859.819031	199.000000
859.852356	191.000000
859.885742	186.000000
859.919067	184.000000
859.952454	186.000000
859.985901	189.000000
860.019287	186.000000
860.052612	0.000000
860.085999	0.000000
860.119324	0.000000
860.152710	0.000000
860.186096	0.000000
860.219421	0.000000
860.252808	0.000000
860.286133	0.000000
860.319519	0.000000
860.352905	0.000000
860.386292	0.000000
860.419617	0.000000
860.452942	0.000000
860.486267	0.000000
860.519653	0.000000
860.553040	0.000000
860.586365	0.000000
860.619690	0.000000
860.653076	0.000000
860.686340	0.000000
860.719727	0.000000
860.753113	0.000000
860.786377	0.000000
860.819763	0.000000
860.853027	0.000000
860.886414	0.000000
860.919739	0.000000
860.953125	0.000000
860.986389	0.000000
861.019714	0.000000
861.053040	0.000000
861.086365	0.000000
861.119690	0.000000
861.153076	0.000000
861.186340	0.000000
861.219666	0.000000
861.252930	0.000000
861.286316	0.000000
861.319641	0.000000
861.352905	0.000000
861.386230	0.000000
861.419495	0.000000
861.452820	0.000000
861.486145	0.000000
861.519470	0.000000
861.552734	0.000000
861.586060	0.000000
861.619324	0.000000
861.652649	0.000000
861.685974	0.000000
861.719238	0.000000
861.752563	0.000000
861.785828	0.000000
861.819092	0.000000
861.852417	0.000000
861.885742	0.000000
861.918945	0.000000
861.952271	0.000000
861.985535	0.000000
862.018799	0.000000
862.052124	0.000000
862.085449	0.000000
862.118652	0.000000
862.151978	0.000000
862.185181	0.000000
862.218506	0.000000
862.251770	0.000000
862.285034	0.000000
862.318298	0.000000
862.351562	0.000000
862.384827	0.000000
862.418091	0.000000
862.451355	0.000000
862.484619	0.000000
862.517883	0.000000
862.551086	0.000000
862.584351	0.000000
862.617676	0.000000
862.650940	0.000000
862.684143	0.000000
862.717407	0.000000
862.750610	0.000000
862.783875	0.000000
862.817139	0.000000
862.850342	0.000000
862.883606	0.000000
862.916870	0.000000
862.950073	0.000000
862.983337	0.000000
863.016602	0.000000
863.049805	0.000000
863.083069	0.000000
863.116211	0.000000
863.149475	0.000000
863.182739	0.000000
863.216003	0.000000
863.249146	0.000000
863.282410	0.000000
863.315613	0.000000
863.348816	0.000000
863.382080	0.000000
863.415222	0.000000
863.448486	0.000000
863.481689	0.000000
863.514893	0.000000
863.548157	0.000000
863.581360	0.000000
863.614502	0.000000
863.647766	0.000000
863.680908	0.000000
863.714172	0.000000
863.747375	0.000000
863.780579	0.000000
863.813721	0.000000
863.846985	0.000000
863.880127	0.000000
863.913330	0.000000
863.946533	0.000000
863.979675	0.000000
864.012939	0.000000
