Model Number: SPM-001-M   
Serial Number: 10090201
Firmware Version: 004.17.6
Exposure Time: 500000.000000us
Data Taken on: 10-03-2021 10:27:25.002
Wavelength	Amplitude
733.770752	0.000000
733.808716	0.000000
733.846619	0.000000
733.884583	0.000000
733.922546	0.000000
733.960449	0.000000
733.998413	0.000000
734.036377	0.000000
734.074219	0.000000
734.112183	0.000000
734.150085	0.000000
734.188049	0.000000
734.226013	0.000000
734.263916	0.000000
734.301819	0.000000
734.339783	0.000000
734.377686	0.000000
734.415588	0.000000
734.453552	0.000000
734.491455	0.000000
734.529419	0.000000
734.567322	0.000000
734.605225	0.000000
734.643127	0.000000
734.681091	0.000000
734.718994	0.000000
734.756897	0.000000
734.794800	0.000000
734.832703	0.000000
734.870667	0.000000
734.908508	0.000000
734.946472	0.000000
734.984375	0.000000
735.022278	0.000000
735.060181	0.000000
735.098083	0.000000
735.135986	0.000000
735.173889	0.000000
735.211792	0.000000
735.249695	0.000000
735.287598	0.000000
735.325439	0.000000
735.363403	0.000000
735.401306	0.000000
735.439148	0.000000
735.477051	0.000000
735.515015	0.000000
735.552856	0.000000
735.590759	0.000000
735.628662	0.000000
735.666504	0.000000
735.704407	0.000000
735.742310	0.000000
735.780212	0.000000
735.818115	0.000000
735.856018	0.000000
735.893860	0.000000
735.931763	0.000000
735.969604	0.000000
736.007507	0.000000
736.045410	0.000000
736.083252	0.000000
736.121094	0.000000
736.158997	0.000000
736.196838	0.000000
736.234741	0.000000
736.272644	0.000000
736.310486	0.000000
736.348389	0.000000
736.386230	0.000000
736.424072	0.000000
736.461975	0.000000
736.499878	0.000000
736.537720	0.000000
736.575562	0.000000
736.613403	0.000000
736.651306	0.000000
736.689148	0.000000
736.726990	0.000000
736.764893	0.000000
736.802734	0.000000
736.840576	0.000000
736.878418	0.000000
736.916321	0.000000
736.954102	0.000000
736.992004	0.000000
737.029846	0.000000
737.067688	0.000000
737.105530	0.000000
737.143372	0.000000
737.181213	0.000000
737.219116	0.000000
737.256897	0.000000
737.294739	0.000000
737.332642	0.000000
737.370422	0.000000
737.408325	0.000000
737.446167	0.000000
737.483948	0.000000
737.521790	0.000000
737.559692	0.000000
737.597473	0.000000
737.635315	0.000000
737.673157	0.000000
737.710999	0.000000
737.748840	0.000000
737.786621	0.000000
737.824463	0.000000
737.862305	0.000000
737.900085	0.000000
737.937927	0.000000
737.975769	0.000000
738.013550	0.000000
738.051392	0.000000
738.089233	0.000000
738.127014	0.000000
738.164856	0.000000
738.202698	0.000000
738.240479	0.000000
738.278320	0.000000
738.316162	0.000000
738.353943	0.000000
738.391785	0.000000
738.429565	0.000000
738.467407	0.000000
738.505188	0.000000
738.542969	0.000000
738.580811	0.000000
738.618652	0.000000
738.656372	0.000000
738.694214	0.000000
738.732056	0.000000
738.769836	0.000000
738.807617	0.000000
738.845459	0.000000
738.883240	0.000000
738.921021	0.000000
738.958862	0.000000
738.996582	0.000000
739.034424	0.000000
739.072205	0.000000
739.109985	0.000000
739.147827	0.000000
739.185547	0.000000
739.223389	0.000000
739.261169	0.000000
739.298889	0.000000
739.336731	0.000000
739.374512	0.000000
739.412292	0.000000
739.450073	0.000000
739.487854	0.000000
739.525635	0.000000
739.563416	0.000000
739.601135	0.000000
739.638977	0.000000
739.676758	0.000000
739.714478	0.000000
739.752258	0.000000
739.790100	0.000000
739.827820	0.000000
739.865601	0.000000
739.903381	0.000000
739.941101	0.000000
739.978882	196.000000
740.016724	190.000000
740.054443	201.000000
740.092224	193.000000
740.130005	195.000000
740.167725	190.000000
740.205505	191.000000
740.243225	195.000000
740.281006	193.000000
740.318787	186.000000
740.356506	200.000000
740.394287	197.000000
740.432068	192.000000
740.469727	183.000000
740.507507	200.000000
740.545288	194.000000
740.583008	199.000000
740.620789	193.000000
740.658569	185.000000
740.696228	193.000000
740.734009	199.000000
740.771790	183.000000
740.809509	203.000000
740.847229	187.000000
740.884949	193.000000
740.922729	184.000000
740.960449	195.000000
740.998169	186.000000
741.035950	192.000000
741.073669	194.000000
741.111389	195.000000
741.149170	200.000000
741.186890	204.000000
741.224609	196.000000
741.262329	192.000000
741.300110	204.000000
741.337769	188.000000
741.375549	189.000000
741.413208	193.000000
741.450989	189.000000
741.488708	195.000000
741.526367	192.000000
741.564148	199.000000
741.601868	199.000000
741.639526	194.000000
741.677307	197.000000
741.715027	195.000000
741.752686	192.000000
741.790466	202.000000
741.828186	197.000000
741.865845	186.000000
741.903564	187.000000
741.941345	189.000000
741.979004	190.000000
742.016724	197.000000
742.054382	199.000000
742.092102	198.000000
742.129822	190.000000
742.167480	190.000000
742.205200	195.000000
742.242920	191.000000
742.280640	201.000000
742.318359	191.000000
742.356079	193.000000
742.393738	196.000000
742.431396	191.000000
742.469116	197.000000
742.506775	185.000000
742.544495	194.000000
742.582214	202.000000
742.619873	194.000000
742.657593	202.000000
742.695251	201.000000
742.732971	192.000000
742.770630	194.000000
742.808289	191.000000
742.846008	194.000000
742.883728	199.000000
742.921326	193.000000
742.959045	189.000000
742.996765	197.000000
743.034424	196.000000
743.072083	191.000000
743.109802	193.000000
743.147400	190.000000
743.185120	194.000000
743.222839	192.000000
743.260437	198.000000
743.298157	196.000000
743.335754	185.000000
743.373474	191.000000
743.411133	182.000000
743.448792	192.000000
743.486450	189.000000
743.524170	189.000000
743.561768	192.000000
743.599487	203.000000
743.637146	202.000000
743.674744	197.000000
743.712463	186.000000
743.750122	195.000000
743.787720	192.000000
743.825439	193.000000
743.863037	191.000000
743.900696	197.000000
743.938416	213.000000
743.976013	193.000000
744.013672	198.000000
744.051331	200.000000
744.088928	200.000000
744.126587	198.000000
744.164307	188.000000
744.201904	189.000000
744.239563	194.000000
744.277222	195.000000
744.314819	193.000000
744.352478	204.000000
744.390137	193.000000
744.427734	198.000000
744.465393	192.000000
744.502991	190.000000
744.540649	194.000000
744.578308	196.000000
744.615906	189.000000
744.653564	185.000000
744.691223	199.000000
744.728821	186.000000
744.766418	191.000000
744.804077	194.000000
744.841675	191.000000
744.879333	187.000000
744.916992	196.000000
744.954529	196.000000
744.992187	203.000000
745.029785	190.000000
745.067444	194.000000
745.105042	194.000000
745.142639	195.000000
745.180298	204.000000
745.217896	194.000000
745.255493	189.000000
745.293152	199.000000
745.330750	198.000000
745.368347	205.000000
745.405945	195.000000
745.443604	195.000000
745.481140	197.000000
745.518799	192.000000
745.556396	195.000000
745.593994	200.000000
745.631592	191.000000
745.669189	188.000000
745.706787	193.000000
745.744385	192.000000
745.781982	193.000000
745.819580	191.000000
745.857178	189.000000
745.894775	193.000000
745.932373	193.000000
745.969971	194.000000
746.007568	179.000000
746.045166	204.000000
746.082764	193.000000
746.120300	197.000000
746.157898	193.000000
746.195557	194.000000
746.233093	187.000000
746.270691	203.000000
746.308228	193.000000
746.345825	197.000000
746.383423	198.000000
746.420959	188.000000
746.458557	190.000000
746.496155	192.000000
746.533691	193.000000
746.571289	188.000000
746.608887	194.000000
746.646423	196.000000
746.684021	195.000000
746.721619	189.000000
746.759155	198.000000
746.796753	186.000000
746.834351	189.000000
746.871826	190.000000
746.909424	199.000000
746.946960	193.000000
746.984558	194.000000
747.022156	192.000000
747.059631	205.000000
747.097229	198.000000
747.134827	190.000000
747.172363	197.000000
747.209900	197.000000
747.247498	190.000000
747.285034	201.000000
747.322571	199.000000
747.360168	191.000000
747.397644	183.000000
747.435242	197.000000
747.472778	198.000000
747.510315	191.000000
747.547913	188.000000
747.585388	201.000000
747.622925	188.000000
747.660522	187.000000
747.697998	187.000000
747.735596	192.000000
747.773132	185.000000
747.810669	189.000000
747.848206	195.000000
747.885742	190.000000
747.923279	187.000000
747.960815	199.000000
747.998352	193.000000
748.035889	197.000000
748.073425	199.000000
748.110901	189.000000
748.148437	185.000000
748.185974	198.000000
748.223511	205.000000
748.261047	195.000000
748.298584	194.000000
748.336060	193.000000
748.373596	197.000000
748.411133	216.000000
748.448608	193.000000
748.486145	200.000000
748.523682	200.000000
748.561218	200.000000
748.598755	196.000000
748.636292	197.000000
748.673706	193.000000
748.711243	195.000000
748.748718	197.000000
748.786255	196.000000
748.823792	197.000000
748.861267	187.000000
748.898804	201.000000
748.936340	194.000000
748.973816	193.000000
749.011292	199.000000
749.048828	195.000000
749.086304	196.000000
749.123840	207.000000
749.161316	184.000000
749.198792	204.000000
749.236328	199.000000
749.273743	194.000000
749.311279	189.000000
749.348816	195.000000
749.386230	192.000000
749.423767	183.000000
749.461304	191.000000
749.498718	191.000000
749.536255	198.000000
749.573730	207.000000
749.611206	200.000000
749.648682	188.000000
749.686218	197.000000
749.723633	201.000000
749.761169	192.000000
749.798645	189.000000
749.836060	191.000000
749.873596	192.000000
749.911011	191.000000
749.948547	200.000000
749.986023	198.000000
750.023437	192.000000
750.060913	186.000000
750.098450	189.000000
750.135864	193.000000
750.173340	195.000000
750.210815	200.000000
750.248291	193.000000
750.285767	194.000000
750.323242	197.000000
750.360657	196.000000
750.398132	190.000000
750.435608	198.000000
750.473022	189.000000
750.510498	191.000000
750.547974	188.000000
750.585449	192.000000
750.622925	182.000000
750.660339	204.000000
750.697815	192.000000
750.735291	197.000000
750.772644	189.000000
750.810120	196.000000
750.847595	196.000000
750.885010	190.000000
750.922485	200.000000
750.959961	194.000000
750.997375	197.000000
751.034851	198.000000
751.072266	199.000000
751.109680	188.000000
751.147156	197.000000
751.184570	197.000000
751.221985	195.000000
751.259460	187.000000
751.296875	191.000000
751.334290	191.000000
751.371765	194.000000
751.409180	196.000000
751.446594	199.000000
751.484070	195.000000
751.521423	193.000000
751.558899	199.000000
751.596375	198.000000
751.633728	199.000000
751.671204	210.000000
751.708618	191.000000
751.746033	195.000000
751.783447	189.000000
751.820801	189.000000
751.858276	199.000000
751.895691	192.000000
751.933105	191.000000
751.970520	188.000000
752.007935	193.000000
752.045349	200.000000
752.082764	195.000000
752.120178	196.000000
752.157532	193.000000
752.195007	195.000000
752.232422	198.000000
752.269775	201.000000
752.307190	197.000000
752.344543	193.000000
752.382019	193.000000
752.419434	193.000000
752.456787	192.000000
752.494202	201.000000
752.531616	193.000000
752.568970	200.000000
752.606384	192.000000
752.643799	198.000000
752.681152	202.000000
752.718567	198.000000
752.755981	186.000000
752.793335	193.000000
752.830750	185.000000
752.868164	203.000000
752.905518	188.000000
752.942932	197.000000
752.980225	187.000000
753.017639	193.000000
753.055054	189.000000
753.092407	200.000000
753.129822	203.000000
753.167175	203.000000
753.204529	195.000000
753.241943	193.000000
753.279358	187.000000
753.316650	195.000000
753.354065	196.000000
753.391479	198.000000
753.428772	202.000000
753.466187	195.000000
753.503479	187.000000
753.540894	195.000000
753.578308	191.000000
753.615601	190.000000
753.653015	196.000000
753.690369	194.000000
753.727722	193.000000
753.765076	188.000000
753.802490	188.000000
753.839783	185.000000
753.877136	195.000000
753.914551	208.000000
753.951843	192.000000
753.989258	197.000000
754.026611	192.000000
754.063904	191.000000
754.101257	191.000000
754.138611	189.000000
754.175964	196.000000
754.213318	209.000000
754.250610	186.000000
754.288025	193.000000
754.325378	188.000000
754.362671	198.000000
754.400024	197.000000
754.437378	201.000000
754.474670	207.000000
754.512085	189.000000
754.549438	195.000000
754.586731	191.000000
754.624084	194.000000
754.661438	185.000000
754.698730	204.000000
754.736084	194.000000
754.773376	193.000000
754.810730	195.000000
754.848083	191.000000
754.885315	198.000000
754.922668	185.000000
754.960022	186.000000
754.997314	203.000000
755.034668	197.000000
755.072021	197.000000
755.109253	191.000000
755.146606	204.000000
755.183960	194.000000
755.221252	209.000000
755.258545	202.000000
755.295898	206.000000
755.333191	206.000000
755.370544	199.000000
755.407776	194.000000
755.445129	202.000000
755.482422	200.000000
755.519714	193.000000
755.557068	195.000000
755.594360	188.000000
755.631653	201.000000
755.668945	200.000000
755.706299	204.000000
755.743530	211.000000
755.780884	205.000000
755.818176	203.000000
755.855408	201.000000
755.892761	201.000000
755.930054	202.000000
755.967346	200.000000
756.004639	205.000000
756.041870	196.000000
756.079224	207.000000
756.116516	194.000000
756.153748	203.000000
756.191040	203.000000
756.228394	204.000000
756.265625	197.000000
756.302917	202.000000
756.340210	194.000000
756.377441	207.000000
756.414795	206.000000
756.452087	200.000000
756.489319	192.000000
756.526611	205.000000
756.563843	198.000000
756.601135	212.000000
756.638428	205.000000
756.675659	201.000000
756.712952	205.000000
756.750244	204.000000
756.787476	200.000000
756.824768	213.000000
756.862061	198.000000
756.899292	251.000000
756.936584	207.000000
756.973816	213.000000
757.011047	216.000000
757.048340	205.000000
757.085632	204.000000
757.122864	223.000000
757.160156	207.000000
757.197327	208.000000
757.234619	211.000000
757.271912	207.000000
757.309082	209.000000
757.346375	202.000000
757.383667	216.000000
757.420837	206.000000
757.458130	208.000000
757.495422	205.000000
757.532593	211.000000
757.569885	200.000000
757.607117	206.000000
757.644348	211.000000
757.681580	220.000000
757.718811	194.000000
757.756042	205.000000
757.793335	202.000000
757.830505	206.000000
757.867798	197.000000
757.905029	204.000000
757.942200	206.000000
757.979492	202.000000
758.016724	203.000000
758.053894	201.000000
758.091187	220.000000
758.128418	210.000000
758.165588	199.000000
758.202820	215.000000
758.240112	205.000000
758.277283	217.000000
758.314514	209.000000
758.351685	206.000000
758.388916	217.000000
758.426147	217.000000
758.463379	216.000000
758.500610	217.000000
758.537842	208.000000
758.575012	215.000000
758.612244	205.000000
758.649475	225.000000
758.686646	199.000000
758.723877	219.000000
758.761108	221.000000
758.798279	211.000000
758.835510	214.000000
758.872742	219.000000
758.909851	217.000000
758.947083	215.000000
758.984253	213.000000
759.021484	220.000000
759.058716	219.000000
759.095886	217.000000
759.133057	217.000000
759.170288	218.000000
759.207458	207.000000
759.244690	230.000000
759.281860	223.000000
759.319031	220.000000
759.356262	213.000000
759.393433	213.000000
759.430603	211.000000
759.467773	215.000000
759.505005	226.000000
759.542175	217.000000
759.579346	217.000000
759.616516	215.000000
759.653687	218.000000
759.690918	210.000000
759.728027	224.000000
759.765259	217.000000
759.802429	223.000000
759.839539	213.000000
759.876770	219.000000
759.913940	226.000000
759.951111	220.000000
759.988281	216.000000
760.025452	216.000000
760.062561	214.000000
760.099792	227.000000
760.136963	222.000000
760.174072	213.000000
760.211243	210.000000
760.248413	216.000000
760.285583	214.000000
760.322754	230.000000
760.359863	223.000000
760.397034	229.000000
760.434204	217.000000
760.471375	219.000000
760.508545	211.000000
760.545715	220.000000
760.582825	217.000000
760.619995	226.000000
760.657166	217.000000
760.694275	226.000000
760.731445	224.000000
760.768555	226.000000
760.805664	227.000000
760.842834	223.000000
760.879944	226.000000
760.917114	224.000000
760.954285	222.000000
760.991394	219.000000
761.028564	231.000000
761.065674	229.000000
761.102783	225.000000
761.139954	225.000000
761.177124	230.000000
761.214172	234.000000
761.251343	228.000000
761.288452	224.000000
761.325562	233.000000
761.362732	220.000000
761.399841	230.000000
761.436951	228.000000
761.474121	227.000000
761.511169	231.000000
761.548340	234.000000
761.585449	231.000000
761.622559	234.000000
761.659668	230.000000
761.696838	239.000000
761.733887	233.000000
761.771057	233.000000
761.808167	231.000000
761.845276	241.000000
761.882385	243.000000
761.919434	235.000000
761.956604	253.000000
761.993713	236.000000
762.030762	238.000000
762.067871	238.000000
762.105042	233.000000
762.142090	248.000000
762.179199	237.000000
762.216309	245.000000
762.253418	252.000000
762.290527	251.000000
762.327637	249.000000
762.364685	238.000000
762.401794	250.000000
762.438904	249.000000
762.475952	239.000000
762.513062	235.000000
762.550110	238.000000
762.587219	249.000000
762.624329	252.000000
762.661377	248.000000
762.698486	246.000000
762.735596	242.000000
762.772644	242.000000
762.809753	239.000000
762.846863	250.000000
762.883911	245.000000
762.921021	251.000000
762.958069	245.000000
762.995117	255.000000
763.032227	258.000000
763.069336	252.000000
763.106323	240.000000
763.143433	243.000000
763.180481	250.000000
763.217590	256.000000
763.254639	247.000000
763.291687	247.000000
763.328735	261.000000
763.365845	252.000000
763.402893	253.000000
763.439941	263.000000
763.477051	255.000000
763.514038	259.000000
763.551147	251.000000
763.588196	256.000000
763.625244	251.000000
763.662292	269.000000
763.699402	260.000000
763.736389	259.000000
763.773499	266.000000
763.810486	269.000000
763.847534	262.000000
763.884644	262.000000
763.921631	262.000000
763.958679	273.000000
763.995728	265.000000
764.032776	269.000000
764.069824	255.000000
764.106873	270.000000
764.143860	275.000000
764.180969	271.000000
764.218018	279.000000
764.255005	263.000000
764.292053	273.000000
764.329102	276.000000
764.366089	275.000000
764.403137	276.000000
764.440125	265.000000
764.477173	269.000000
764.514221	275.000000
764.551208	273.000000
764.588257	267.000000
764.625305	275.000000
764.662292	285.000000
764.699341	282.000000
764.736389	276.000000
764.773376	293.000000
764.810425	282.000000
764.847473	288.000000
764.884399	287.000000
764.921448	294.000000
764.958435	290.000000
764.995483	279.000000
765.032532	297.000000
765.069458	277.000000
765.106506	283.000000
765.143555	281.000000
765.180481	290.000000
765.217529	298.000000
765.254578	281.000000
765.291504	289.000000
765.328552	290.000000
765.365540	282.000000
765.402527	302.000000
765.439575	275.000000
765.476501	284.000000
765.513550	277.000000
765.550537	286.000000
765.587463	290.000000
765.624512	292.000000
765.661499	281.000000
765.698486	299.000000
765.735474	284.000000
765.772461	283.000000
765.809448	300.000000
765.846436	295.000000
765.883423	297.000000
765.920410	299.000000
765.957397	289.000000
765.994385	293.000000
766.031311	303.000000
766.068359	298.000000
766.105286	301.000000
766.142273	307.000000
766.179260	308.000000
766.216187	297.000000
766.253174	291.000000
766.290161	305.000000
766.327148	299.000000
766.364136	302.000000
766.401123	326.000000
766.438049	295.000000
766.475037	315.000000
766.512024	303.000000
766.548950	325.000000
766.585937	312.000000
766.622864	313.000000
766.659790	314.000000
766.696777	300.000000
766.733704	317.000000
766.770691	311.000000
766.807678	324.000000
766.844604	321.000000
766.881531	321.000000
766.918518	328.000000
766.955444	326.000000
766.992432	323.000000
767.029358	325.000000
767.066284	331.000000
767.103271	321.000000
767.140198	353.000000
767.177124	339.000000
767.214050	337.000000
767.251038	334.000000
767.287964	329.000000
767.324890	333.000000
767.361816	338.000000
767.398743	341.000000
767.435730	342.000000
767.472595	339.000000
767.509583	349.000000
767.546509	329.000000
767.583374	342.000000
767.620361	332.000000
767.657288	346.000000
767.694214	348.000000
767.731140	343.000000
767.768066	337.000000
767.804993	349.000000
767.841919	343.000000
767.878845	350.000000
767.915710	363.000000
767.952698	348.000000
767.989563	356.000000
768.026489	361.000000
768.063416	353.000000
768.100281	349.000000
768.137207	369.000000
768.174133	361.000000
768.211060	365.000000
768.247986	359.000000
768.284912	367.000000
768.321777	375.000000
768.358704	364.000000
768.395630	364.000000
768.432495	359.000000
768.469421	361.000000
768.506348	374.000000
768.543152	381.000000
768.580078	371.000000
768.616943	374.000000
768.653870	383.000000
768.690796	372.000000
768.727661	377.000000
768.764587	374.000000
768.801453	374.000000
768.838318	386.000000
768.875244	387.000000
768.912109	387.000000
768.948975	386.000000
768.985901	387.000000
769.022766	386.000000
769.059631	404.000000
769.096558	386.000000
769.133362	389.000000
769.170288	389.000000
769.207214	387.000000
769.244019	401.000000
769.280945	407.000000
769.317810	403.000000
769.354675	397.000000
769.391541	406.000000
769.428406	404.000000
769.465271	422.000000
769.502136	405.000000
769.539062	415.000000
769.575867	405.000000
769.612732	413.000000
769.649597	415.000000
769.686462	417.000000
769.723328	420.000000
769.760193	410.000000
769.797058	420.000000
769.833923	421.000000
769.870728	422.000000
769.907593	428.000000
769.944519	435.000000
769.981323	425.000000
770.018188	430.000000
770.055054	421.000000
770.091858	432.000000
770.128723	436.000000
770.165588	449.000000
770.202393	426.000000
770.239258	441.000000
770.276062	427.000000
770.312927	441.000000
770.349792	437.000000
770.386597	434.000000
770.423462	450.000000
770.460327	458.000000
770.497131	437.000000
770.533997	440.000000
770.570862	448.000000
770.607605	453.000000
770.644470	446.000000
770.681335	450.000000
770.718140	447.000000
770.754944	442.000000
770.791809	438.000000
770.828613	454.000000
770.865479	446.000000
770.902222	458.000000
770.939087	448.000000
770.975952	441.000000
771.012695	445.000000
771.049561	460.000000
771.086365	444.000000
771.123169	451.000000
771.159973	454.000000
771.196838	453.000000
771.233582	462.000000
771.270447	457.000000
771.307251	457.000000
771.344055	455.000000
771.380859	459.000000
771.417664	453.000000
771.454468	468.000000
771.491272	465.000000
771.528076	462.000000
771.564880	470.000000
771.601685	485.000000
771.638428	465.000000
771.675293	474.000000
771.712097	468.000000
771.748840	478.000000
771.785645	474.000000
771.822449	470.000000
771.859253	475.000000
771.896057	479.000000
771.932861	477.000000
771.969604	480.000000
772.006409	468.000000
772.043213	483.000000
772.079956	482.000000
772.116760	478.000000
772.153503	475.000000
772.190308	491.000000
772.227112	481.000000
772.263855	478.000000
772.300659	493.000000
772.337463	497.000000
772.374207	485.000000
772.411011	485.000000
772.447754	490.000000
772.484497	498.000000
772.521301	501.000000
772.558105	503.000000
772.594849	505.000000
772.631592	507.000000
772.668396	509.000000
772.705139	519.000000
772.741882	508.000000
772.778625	523.000000
772.815430	535.000000
772.852173	529.000000
772.888916	531.000000
772.925720	538.000000
772.962463	535.000000
772.999207	541.000000
773.035950	546.000000
773.072754	539.000000
773.109436	526.000000
773.146240	543.000000
773.182922	541.000000
773.219727	553.000000
773.256470	552.000000
773.293152	535.000000
773.329956	543.000000
773.366699	552.000000
773.403381	544.000000
773.440186	549.000000
773.476929	561.000000
773.513611	551.000000
773.550354	549.000000
773.587158	549.000000
773.623840	544.000000
773.660583	558.000000
773.697327	578.000000
773.734009	562.000000
773.770813	570.000000
773.807495	562.000000
773.844238	572.000000
773.880981	587.000000
773.917664	589.000000
773.954407	584.000000
773.991150	579.000000
774.027832	576.000000
774.064575	580.000000
774.101318	593.000000
774.138000	595.000000
774.174744	588.000000
774.211487	594.000000
774.248108	581.000000
774.284851	580.000000
774.321594	610.000000
774.358276	601.000000
774.395020	612.000000
774.431702	609.000000
774.468384	596.000000
774.505127	597.000000
774.541809	603.000000
774.578491	625.000000
774.615234	629.000000
774.651917	626.000000
774.688599	625.000000
774.725342	638.000000
774.762024	631.000000
774.798706	637.000000
774.835449	637.000000
774.872070	649.000000
774.908813	642.000000
774.945496	634.000000
774.982178	645.000000
775.018860	636.000000
775.055542	646.000000
775.092224	651.000000
775.128967	652.000000
775.165588	647.000000
775.202271	646.000000
775.239014	654.000000
775.275635	660.000000
775.312317	653.000000
775.349060	664.000000
775.385681	656.000000
775.422363	658.000000
775.459045	666.000000
775.495667	664.000000
775.532410	665.000000
775.569092	671.000000
775.605713	669.000000
775.642395	675.000000
775.679016	671.000000
775.715698	683.000000
775.752380	681.000000
775.789001	667.000000
775.825684	668.000000
775.862366	679.000000
775.898987	692.000000
775.935669	679.000000
775.972351	704.000000
776.008972	696.000000
776.045654	696.000000
776.082336	689.000000
776.118958	687.000000
776.155640	694.000000
776.192322	705.000000
776.228882	714.000000
776.265564	701.000000
776.302185	698.000000
776.338867	711.000000
776.375488	708.000000
776.412109	715.000000
776.448792	716.000000
776.485413	717.000000
776.522034	707.000000
776.558716	704.000000
776.595337	705.000000
776.631958	711.000000
776.668579	716.000000
776.705261	714.000000
776.741882	713.000000
776.778503	718.000000
776.815186	711.000000
776.851746	716.000000
776.888367	713.000000
776.924988	719.000000
776.961609	707.000000
776.998291	722.000000
777.034851	706.000000
777.071472	714.000000
777.108154	724.000000
777.144714	721.000000
777.181335	732.000000
777.218018	725.000000
777.254578	733.000000
777.291199	727.000000
777.327759	733.000000
777.364380	735.000000
777.401062	749.000000
777.437622	755.000000
777.474243	738.000000
777.510864	750.000000
777.547424	743.000000
777.584045	763.000000
777.620667	762.000000
777.657227	786.000000
777.693848	771.000000
777.730469	783.000000
777.767029	777.000000
777.803650	783.000000
777.840271	771.000000
777.876831	761.000000
777.913452	776.000000
777.950012	760.000000
777.986633	758.000000
778.023193	759.000000
778.059753	758.000000
778.096375	771.000000
778.132996	778.000000
778.169556	769.000000
778.206116	763.000000
778.242737	772.000000
778.279297	781.000000
778.315857	771.000000
778.352478	769.000000
778.389038	787.000000
778.425598	789.000000
778.462219	801.000000
778.498718	809.000000
778.535339	810.000000
778.571838	809.000000
778.608459	809.000000
778.645020	815.000000
778.681580	820.000000
778.718140	825.000000
778.754761	811.000000
778.791260	831.000000
778.827881	841.000000
778.864441	839.000000
778.900940	839.000000
778.937561	840.000000
778.974121	841.000000
779.010620	825.000000
779.047241	830.000000
779.083801	838.000000
779.120300	851.000000
779.156860	853.000000
779.193359	843.000000
779.229980	853.000000
779.266541	860.000000
779.303040	863.000000
779.339600	849.000000
779.376160	849.000000
779.412659	851.000000
779.449219	852.000000
779.485779	852.000000
779.522278	859.000000
779.558838	866.000000
779.595398	864.000000
779.631897	862.000000
779.668457	855.000000
779.705017	866.000000
779.741516	869.000000
779.778076	858.000000
779.814575	860.000000
779.851074	896.000000
779.887634	883.000000
779.924133	891.000000
779.960693	867.000000
779.997253	881.000000
780.033691	886.000000
780.070251	892.000000
780.106812	908.000000
780.143250	902.000000
780.179810	897.000000
780.216370	914.000000
780.252808	912.000000
780.289368	920.000000
780.325867	927.000000
780.362366	933.000000
780.398865	948.000000
780.435364	932.000000
780.471863	934.000000
780.508423	941.000000
780.544861	941.000000
780.581421	963.000000
780.617920	949.000000
780.654419	932.000000
780.690918	937.000000
780.727417	966.000000
780.763916	954.000000
780.800415	969.000000
780.836914	932.000000
780.873352	945.000000
780.909912	931.000000
780.946411	951.000000
780.982849	980.000000
781.019348	987.000000
781.055786	976.000000
781.092346	962.000000
781.128845	996.000000
781.165283	989.000000
781.201782	997.000000
781.238281	1006.000000
781.274719	1015.000000
781.311218	1013.000000
781.347717	1019.000000
781.384155	1001.000000
781.420654	1003.000000
781.457092	1014.000000
781.493591	1000.000000
781.530090	997.000000
781.566528	995.000000
781.602966	1025.000000
781.639465	1008.000000
781.675903	1003.000000
781.712402	1010.000000
781.748901	1015.000000
781.785278	1011.000000
781.821777	1019.000000
781.858276	1020.000000
781.894714	1030.000000
781.931152	1024.000000
781.967651	1019.000000
782.004089	1021.000000
782.040527	1029.000000
782.076965	1028.000000
782.113403	1042.000000
782.149902	1049.000000
782.186340	1030.000000
782.222778	1032.000000
782.259277	1029.000000
782.295654	1042.000000
782.332092	1043.000000
782.368591	1026.000000
782.404968	1029.000000
782.441467	1011.000000
782.477905	1014.000000
782.514282	1014.000000
782.550781	1034.000000
782.587219	1050.000000
782.623596	1055.000000
782.660095	1052.000000
782.696472	1052.000000
782.732910	1042.000000
782.769348	1058.000000
782.805786	1092.000000
782.842224	1088.000000
782.878662	1064.000000
782.915039	1065.000000
782.951477	1073.000000
782.987915	1082.000000
783.024292	1081.000000
783.060730	1056.000000
783.097168	1044.000000
783.133545	1060.000000
783.169983	1059.000000
783.206421	1031.000000
783.242798	1047.000000
783.279236	1042.000000
783.315613	1031.000000
783.352051	1018.000000
783.388489	1009.000000
783.424866	982.000000
783.461304	989.000000
783.497681	1002.000000
783.534058	994.000000
783.570496	993.000000
783.606934	991.000000
783.643250	1002.000000
783.679687	1010.000000
783.716125	1012.000000
783.752441	1019.000000
783.788879	1033.000000
783.825317	1028.000000
783.861633	1035.000000
783.898071	1041.000000
783.934448	1059.000000
783.970825	1072.000000
784.007263	1075.000000
784.043579	1059.000000
784.080017	1029.000000
784.116394	927.000000
784.152710	772.000000
784.189148	591.000000
784.225525	449.000000
784.261902	361.000000
784.298279	382.000000
784.334656	417.000000
784.371033	425.000000
784.407410	417.000000
784.443787	382.000000
784.480164	379.000000
784.516541	468.000000
784.552856	633.000000
784.589233	802.000000
784.625610	920.000000
784.661987	1020.000000
784.698364	1033.000000
784.734741	1050.000000
784.771057	1043.000000
784.807434	1036.000000
784.843811	1075.000000
784.880127	1079.000000
784.916504	1101.000000
784.952881	1105.000000
784.989197	1101.000000
785.025574	1108.000000
785.061951	1110.000000
785.098267	1157.000000
785.134644	1143.000000
785.170959	1137.000000
785.207275	1161.000000
785.243652	1129.000000
785.279968	1135.000000
785.316345	1142.000000
785.352722	1154.000000
785.388977	1153.000000
785.425354	1150.000000
785.461731	1109.000000
785.498047	1107.000000
785.534363	1105.000000
785.570679	1107.000000
785.606995	1100.000000
785.643372	1116.000000
785.679687	1097.000000
785.716003	1065.000000
785.752380	1078.000000
785.788635	1088.000000
785.825012	1106.000000
785.861328	1113.000000
785.897644	1101.000000
785.933960	1124.000000
785.970337	1111.000000
786.006592	1136.000000
786.042908	1153.000000
786.079285	1174.000000
786.115540	1193.000000
786.151855	1196.000000
786.188171	1183.000000
786.224487	1201.000000
786.260803	1189.000000
786.297119	1197.000000
786.333435	1210.000000
786.369751	1199.000000
786.406006	1181.000000
786.442322	1184.000000
786.478638	1170.000000
786.514954	1178.000000
786.551270	1171.000000
786.587585	1176.000000
786.623840	1175.000000
786.660156	1166.000000
786.696472	1153.000000
786.732727	1146.000000
786.769043	1156.000000
786.805298	1151.000000
786.841614	1167.000000
786.877930	1163.000000
786.914124	1153.000000
786.950439	1153.000000
786.986755	1172.000000
787.023010	1187.000000
787.059326	1197.000000
787.095642	1198.000000
787.131836	1216.000000
787.168152	1189.000000
787.204468	1214.000000
787.240723	1235.000000
787.276978	1238.000000
787.313293	1233.000000
787.349548	1238.000000
787.385803	1240.000000
787.422058	1231.000000
787.458313	1241.000000
787.494629	1229.000000
787.530823	1238.000000
787.567139	1246.000000
787.603455	1211.000000
787.639648	1188.000000
787.675903	1195.000000
787.712219	1211.000000
787.748413	1209.000000
787.784729	1229.000000
787.820984	1194.000000
787.857178	1174.000000
787.893494	1164.000000
787.929749	1168.000000
787.965942	1180.000000
788.002258	1198.000000
788.038452	1208.000000
788.074707	1180.000000
788.110962	1188.000000
788.147217	1187.000000
788.183472	1198.000000
788.219727	1216.000000
788.255920	1236.000000
788.292175	1234.000000
788.328430	1222.000000
788.364624	1204.000000
788.400879	1192.000000
788.437134	1203.000000
788.473328	1207.000000
788.509583	1207.000000
788.545837	1200.000000
788.582031	1203.000000
788.618286	1177.000000
788.654480	1170.000000
788.690735	1173.000000
788.726990	1211.000000
788.763184	1198.000000
788.799377	1224.000000
788.835632	1212.000000
788.871826	1210.000000
788.908081	1227.000000
788.944336	1225.000000
788.980469	1256.000000
789.016724	1247.000000
789.052979	1232.000000
789.089111	1208.000000
789.125366	1214.000000
789.161621	1189.000000
789.197754	1217.000000
789.234009	1209.000000
789.270142	1193.000000
789.306396	1161.000000
789.342590	1157.000000
789.378784	1129.000000
789.414978	1144.000000
789.451233	1146.000000
789.487366	1156.000000
789.523621	1151.000000
789.559814	1150.000000
789.595947	1139.000000
789.632202	1165.000000
789.668335	1171.000000
789.704529	1214.000000
789.740784	1235.000000
789.776917	1214.000000
789.813110	1203.000000
789.849304	1218.000000
789.885498	1229.000000
789.921692	1245.000000
789.957886	1261.000000
789.994019	1242.000000
790.030212	1232.000000
790.066406	1235.000000
790.102539	1218.000000
790.138733	1242.000000
790.174927	1245.000000
790.211060	1261.000000
790.247253	1257.000000
790.283386	1236.000000
790.319580	1190.000000
790.355774	1187.000000
790.391907	1197.000000
790.428101	1230.000000
790.464294	1215.000000
790.500427	1223.000000
790.536621	1207.000000
790.572754	1192.000000
790.608887	1216.000000
790.645081	1200.000000
790.681274	1215.000000
790.717346	1203.000000
790.753540	1174.000000
790.789734	1102.000000
790.825867	1039.000000
790.862000	1060.000000
790.898132	1123.000000
790.934265	1177.000000
790.970459	1239.000000
791.006592	1263.000000
791.042725	1280.000000
791.078918	1274.000000
791.114990	1262.000000
791.151184	1294.000000
791.187317	1317.000000
791.223389	1302.000000
791.259583	1286.000000
791.295715	1300.000000
791.331848	1310.000000
791.367981	1313.000000
791.404114	1332.000000
791.440247	1323.000000
791.476379	1331.000000
791.512451	1303.000000
791.548584	1293.000000
791.584778	1285.000000
791.620850	1316.000000
791.656982	1316.000000
791.693115	1308.000000
791.729187	1305.000000
791.765381	1295.000000
791.801514	1307.000000
791.837585	1300.000000
791.873718	1301.000000
791.909851	1325.000000
791.945923	1341.000000
791.982056	1276.000000
792.018188	1290.000000
792.054260	1283.000000
792.090393	1314.000000
792.126465	1316.000000
792.162598	1313.000000
792.198669	1296.000000
792.234741	1294.000000
792.270874	1274.000000
792.307007	1253.000000
792.343079	1258.000000
792.379150	1289.000000
792.415283	1266.000000
792.451355	1271.000000
792.487488	1238.000000
792.523560	1236.000000
792.559631	1237.000000
792.595764	1252.000000
792.631836	1250.000000
792.667908	1261.000000
792.703979	1250.000000
792.740051	1241.000000
792.776184	1221.000000
792.812256	1243.000000
792.848328	1245.000000
792.884399	1251.000000
792.920471	1255.000000
792.956543	1235.000000
792.992615	1225.000000
793.028748	1230.000000
793.064758	1255.000000
793.100830	1261.000000
793.136963	1282.000000
793.172974	1286.000000
793.209045	1277.000000
793.245178	1290.000000
793.281189	1266.000000
793.317261	1279.000000
793.353271	1267.000000
793.389404	1280.000000
793.425476	1279.000000
793.461487	1272.000000
793.497559	1248.000000
793.533630	1270.000000
793.569641	1251.000000
793.605713	1263.000000
793.641785	1259.000000
793.677795	1267.000000
793.713867	1256.000000
793.749878	1261.000000
793.785950	1287.000000
793.822021	1288.000000
793.858032	1287.000000
793.894104	1285.000000
793.930176	1274.000000
793.966187	1288.000000
794.002258	1270.000000
794.038269	1254.000000
794.074280	1252.000000
794.110352	1293.000000
794.146423	1255.000000
794.182373	1233.000000
794.218445	1234.000000
794.254517	1223.000000
794.290466	1210.000000
794.326538	1227.000000
794.362549	1221.000000
794.398560	1228.000000
794.434631	1248.000000
794.470581	1193.000000
794.506653	1190.000000
794.542664	1188.000000
794.578674	1186.000000
794.614685	1175.000000
794.650757	1187.000000
794.686707	1183.000000
794.722778	1165.000000
794.758789	1186.000000
794.794739	1182.000000
794.830811	1212.000000
794.866821	1238.000000
794.902771	1222.000000
794.938843	1226.000000
794.974792	1221.000000
795.010803	1215.000000
795.046814	1212.000000
795.082825	1217.000000
795.118835	1224.000000
795.154846	1207.000000
795.190796	1192.000000
795.226807	1175.000000
795.262817	1182.000000
795.298767	1185.000000
795.334778	1174.000000
795.370850	1170.000000
795.406799	1169.000000
795.442810	1149.000000
795.478821	1132.000000
795.514709	1155.000000
795.550720	1161.000000
795.586670	1149.000000
795.622681	1153.000000
795.658691	1166.000000
795.694641	1151.000000
795.730652	1155.000000
795.766663	1148.000000
795.802551	1151.000000
795.838562	1167.000000
795.874573	1139.000000
795.910522	1131.000000
795.946472	1113.000000
795.982483	1143.000000
796.018433	1126.000000
796.054382	1156.000000
796.090393	1137.000000
796.126282	1135.000000
796.162292	1100.000000
796.198242	1102.000000
796.234192	1101.000000
796.270203	1100.000000
796.306091	1096.000000
796.342041	1122.000000
796.378052	1115.000000
796.413940	1123.000000
796.449951	1115.000000
796.485901	1118.000000
796.521790	1119.000000
796.557800	1133.000000
796.593689	1133.000000
796.629639	1102.000000
796.665649	1089.000000
796.701599	1087.000000
796.737488	1083.000000
796.773437	1106.000000
796.809387	1111.000000
796.845337	1110.000000
796.881287	1088.000000
796.917175	1081.000000
796.953125	1067.000000
796.989075	1065.000000
797.024963	1084.000000
797.060913	1094.000000
797.096863	1087.000000
797.132751	1079.000000
797.168701	1061.000000
797.204590	1057.000000
797.240540	1072.000000
797.276489	1077.000000
797.312439	1084.000000
797.348328	1068.000000
797.384277	1063.000000
797.420166	1041.000000
797.456055	1042.000000
797.492004	1053.000000
797.527893	1046.000000
797.563843	1076.000000
797.599731	1056.000000
797.635620	1033.000000
797.671570	1043.000000
797.707520	1061.000000
797.743347	1042.000000
797.779297	1070.000000
797.815125	1065.000000
797.851074	1043.000000
797.887024	1022.000000
797.922913	1020.000000
797.958801	1041.000000
797.994690	1026.000000
798.030579	1043.000000
798.066467	1036.000000
798.102356	1023.000000
798.138245	1016.000000
798.174133	1015.000000
798.210083	1031.000000
798.245911	1035.000000
798.281799	1035.000000
798.317749	1026.000000
798.353577	1008.000000
798.389465	1009.000000
798.425293	991.000000
798.461243	1005.000000
798.497131	1008.000000
798.532959	1015.000000
798.568848	1009.000000
798.604736	999.000000
798.640564	986.000000
798.676453	991.000000
798.712402	989.000000
798.748230	996.000000
798.784119	1013.000000
798.820007	1000.000000
798.855835	997.000000
798.891724	987.000000
798.927551	996.000000
798.963379	1003.000000
798.999268	992.000000
799.035095	995.000000
799.070984	977.000000
799.106873	957.000000
799.142700	977.000000
799.178528	959.000000
799.214417	965.000000
799.250244	983.000000
799.286133	971.000000
799.321960	963.000000
799.357788	954.000000
799.393677	938.000000
799.429504	950.000000
799.465332	952.000000
799.501221	956.000000
799.537048	953.000000
799.572876	962.000000
799.608704	952.000000
799.644531	964.000000
799.680359	963.000000
799.716248	978.000000
799.752014	983.000000
799.787903	965.000000
799.823730	962.000000
799.859558	954.000000
799.895386	946.000000
799.931213	948.000000
799.967041	947.000000
800.002869	944.000000
800.038696	950.000000
800.074463	926.000000
800.110352	931.000000
800.146179	917.000000
800.181946	944.000000
800.217773	925.000000
800.253540	929.000000
800.289429	930.000000
800.325256	907.000000
800.361023	911.000000
800.396851	906.000000
800.432678	916.000000
800.468445	909.000000
800.504272	918.000000
800.540100	874.000000
800.575867	872.000000
800.611694	881.000000
800.647461	883.000000
800.683289	892.000000
800.719116	885.000000
800.754883	874.000000
800.790649	860.000000
800.826477	853.000000
800.862244	872.000000
800.898071	859.000000
800.933838	855.000000
800.969604	853.000000
801.005432	856.000000
801.041199	853.000000
801.076965	830.000000
801.112793	834.000000
801.148560	819.000000
801.184326	832.000000
801.220154	833.000000
801.255859	818.000000
801.291687	811.000000
801.327454	807.000000
801.363281	801.000000
801.398987	803.000000
801.434814	803.000000
801.470520	821.000000
801.506287	798.000000
801.542114	793.000000
801.577820	801.000000
801.613647	795.000000
801.649414	787.000000
801.685120	795.000000
801.720886	799.000000
801.756714	788.000000
801.792419	773.000000
801.828186	782.000000
801.863892	770.000000
801.899719	769.000000
801.935486	768.000000
801.971252	775.000000
802.006958	761.000000
802.042725	769.000000
802.078430	766.000000
802.114197	743.000000
802.149963	777.000000
802.185669	753.000000
802.221436	748.000000
802.257202	753.000000
802.292908	756.000000
802.328674	766.000000
802.364441	765.000000
802.400146	749.000000
802.435913	747.000000
802.471558	737.000000
802.507324	731.000000
802.543091	729.000000
802.578796	737.000000
802.614502	741.000000
802.650269	759.000000
802.685974	725.000000
802.721741	739.000000
802.757446	734.000000
802.793152	733.000000
802.828918	740.000000
802.864624	733.000000
802.900330	730.000000
802.936035	719.000000
802.971802	723.000000
803.007446	723.000000
803.043213	709.000000
803.078857	710.000000
803.114624	695.000000
803.150330	717.000000
803.185974	700.000000
803.221741	702.000000
803.257446	713.000000
803.293152	702.000000
803.328857	685.000000
803.364563	691.000000
803.400208	693.000000
803.435974	708.000000
803.471680	679.000000
803.507324	681.000000
803.543030	689.000000
803.578735	693.000000
803.614441	690.000000
803.650146	690.000000
803.685791	671.000000
803.721497	681.000000
803.757202	663.000000
803.792847	676.000000
803.828552	665.000000
803.864258	660.000000
803.899902	661.000000
803.935608	644.000000
803.971313	652.000000
804.006958	655.000000
804.042664	643.000000
804.078308	653.000000
804.113953	636.000000
804.149658	661.000000
804.185364	637.000000
804.221008	653.000000
804.256714	639.000000
804.292297	643.000000
804.328003	639.000000
804.363708	625.000000
804.399292	626.000000
804.434998	630.000000
804.470703	619.000000
804.506287	636.000000
804.541992	620.000000
804.577637	623.000000
804.613281	609.000000
804.648926	604.000000
804.684570	619.000000
804.720215	605.000000
804.755920	604.000000
804.791565	606.000000
804.827209	623.000000
804.862854	600.000000
804.898437	597.000000
804.934143	599.000000
804.969788	601.000000
805.005371	612.000000
805.041077	606.000000
805.076721	598.000000
805.112305	593.000000
805.147949	596.000000
805.183655	584.000000
805.219238	587.000000
805.254883	581.000000
805.290466	597.000000
805.326111	577.000000
805.361755	573.000000
805.397400	579.000000
805.432983	579.000000
805.468628	585.000000
805.504211	597.000000
805.539856	574.000000
805.575500	590.000000
805.611084	577.000000
805.646729	566.000000
805.682373	570.000000
805.717957	583.000000
805.753601	585.000000
805.789246	560.000000
805.824768	578.000000
805.860413	572.000000
805.895996	565.000000
805.931641	559.000000
805.967224	571.000000
806.002869	568.000000
806.038452	569.000000
806.074036	575.000000
806.109619	561.000000
806.145264	562.000000
806.180847	553.000000
806.216431	550.000000
806.252014	554.000000
806.287659	551.000000
806.323181	554.000000
806.358826	558.000000
806.394409	523.000000
806.429993	543.000000
806.465576	566.000000
806.501160	538.000000
806.536743	529.000000
806.572327	540.000000
806.607910	533.000000
806.643494	535.000000
806.679077	534.000000
806.714661	535.000000
806.750244	528.000000
806.785828	517.000000
806.821350	517.000000
806.856934	526.000000
806.892517	521.000000
806.928101	523.000000
806.963684	520.000000
806.999268	531.000000
807.034790	505.000000
807.070374	518.000000
807.105896	514.000000
807.141479	502.000000
807.177063	517.000000
807.212585	502.000000
807.248169	498.000000
807.283752	517.000000
807.319275	502.000000
807.354858	509.000000
807.390381	493.000000
807.425903	492.000000
807.461487	502.000000
807.497070	495.000000
807.532593	492.000000
807.568115	498.000000
807.603699	479.000000
807.639221	477.000000
807.674744	484.000000
807.710266	483.000000
807.745850	488.000000
807.781372	477.000000
807.816895	480.000000
807.852417	474.000000
807.888000	479.000000
807.923523	472.000000
807.959045	478.000000
807.994629	465.000000
808.030090	470.000000
808.065613	466.000000
808.101135	472.000000
808.136658	462.000000
808.172241	472.000000
808.207764	452.000000
808.243225	461.000000
808.278809	445.000000
808.314270	464.000000
808.349792	451.000000
808.385315	448.000000
808.420837	451.000000
808.456360	450.000000
808.491882	457.000000
808.527344	440.000000
808.562866	464.000000
808.598389	450.000000
808.633850	441.000000
808.669434	445.000000
808.704895	450.000000
808.740417	451.000000
808.775940	437.000000
808.811462	439.000000
808.846924	426.000000
808.882385	431.000000
808.917847	427.000000
808.953369	429.000000
808.988892	423.000000
809.024353	439.000000
809.059875	428.000000
809.095398	426.000000
809.130798	424.000000
809.166321	422.000000
809.201843	424.000000
809.237305	422.000000
809.272766	425.000000
809.308228	411.000000
809.343750	412.000000
809.379211	410.000000
809.414734	409.000000
809.450134	423.000000
809.485657	405.000000
809.521118	411.000000
809.556580	412.000000
809.592102	402.000000
809.627502	398.000000
809.663025	397.000000
809.698486	397.000000
809.733887	392.000000
809.769409	393.000000
809.804871	391.000000
809.840271	385.000000
809.875793	394.000000
809.911194	392.000000
809.946655	381.000000
809.982178	379.000000
810.017639	383.000000
810.053040	385.000000
810.088501	379.000000
810.123901	382.000000
810.159424	372.000000
810.194885	375.000000
810.230286	374.000000
810.265747	370.000000
810.301208	369.000000
810.336609	371.000000
810.372070	360.000000
810.407532	363.000000
810.442932	367.000000
810.478394	374.000000
810.513794	373.000000
810.549255	362.000000
810.584717	364.000000
810.620117	353.000000
810.655518	363.000000
810.690979	364.000000
810.726379	362.000000
810.761841	353.000000
810.797302	352.000000
810.832642	349.000000
810.868103	360.000000
810.903564	350.000000
810.938904	360.000000
810.974365	347.000000
811.009827	348.000000
811.045166	341.000000
811.080627	337.000000
811.115967	348.000000
811.151428	348.000000
811.186829	340.000000
811.222229	338.000000
811.257629	332.000000
811.293091	343.000000
811.328430	348.000000
811.363892	345.000000
811.399292	341.000000
811.434631	338.000000
811.470093	339.000000
811.505493	332.000000
811.540833	334.000000
811.576294	336.000000
811.611694	324.000000
811.647034	332.000000
811.682434	325.000000
811.717773	333.000000
811.753235	341.000000
811.788635	325.000000
811.823975	329.000000
811.859375	339.000000
811.894775	317.000000
811.930115	326.000000
811.965515	326.000000
812.000916	331.000000
812.036255	319.000000
812.071655	323.000000
812.106995	321.000000
812.142395	320.000000
812.177795	324.000000
812.213196	321.000000
812.248474	327.000000
812.283875	317.000000
812.319214	318.000000
812.354614	319.000000
812.390015	327.000000
812.425293	324.000000
812.460693	312.000000
812.496094	311.000000
812.531433	311.000000
812.566772	307.000000
812.602173	312.000000
812.637451	310.000000
812.672852	312.000000
812.708191	306.000000
812.743530	311.000000
812.778931	295.000000
812.814270	304.000000
812.849609	305.000000
812.884949	305.000000
812.920227	296.000000
812.955627	320.000000
812.990967	303.000000
813.026306	298.000000
813.061646	289.000000
813.096985	283.000000
813.132324	280.000000
813.167664	287.000000
813.203003	292.000000
813.238281	278.000000
813.273682	279.000000
813.308960	275.000000
813.344299	279.000000
813.379639	290.000000
813.414978	279.000000
813.450256	280.000000
813.485596	278.000000
813.520874	278.000000
813.556213	281.000000
813.591614	285.000000
813.626831	276.000000
813.662170	283.000000
813.697510	292.000000
813.732788	278.000000
813.768127	278.000000
813.803467	285.000000
813.838745	278.000000
813.874084	277.000000
813.909363	277.000000
813.944641	276.000000
813.979980	269.000000
814.015320	272.000000
814.050598	271.000000
814.085876	273.000000
814.121155	272.000000
814.156494	270.000000
814.191772	269.000000
814.227051	268.000000
814.262390	272.000000
814.297668	271.000000
814.332947	275.000000
814.368225	264.000000
814.403564	267.000000
814.438782	265.000000
814.474121	268.000000
814.509338	261.000000
814.544617	273.000000
814.579956	260.000000
814.615173	269.000000
814.650513	271.000000
814.685791	265.000000
814.721008	261.000000
814.756348	261.000000
814.791626	260.000000
814.826843	262.000000
814.862122	258.000000
814.897400	258.000000
814.932678	255.000000
814.967957	256.000000
815.003235	251.000000
815.038452	247.000000
815.073730	245.000000
815.108948	264.000000
815.144226	255.000000
815.179504	264.000000
815.214722	243.000000
815.250000	247.000000
815.285278	250.000000
815.320496	245.000000
815.355774	249.000000
815.391052	250.000000
815.426270	247.000000
815.461487	248.000000
815.496765	241.000000
815.531982	234.000000
815.567261	242.000000
815.602539	256.000000
815.637695	250.000000
815.672974	251.000000
815.708191	253.000000
815.743408	248.000000
815.778687	243.000000
815.813904	253.000000
815.849121	230.000000
815.884399	240.000000
815.919556	237.000000
815.954834	237.000000
815.990051	243.000000
816.025269	240.000000
816.060486	240.000000
816.095703	233.000000
816.130920	237.000000
816.166199	233.000000
816.201416	237.000000
816.236572	242.000000
816.271851	234.000000
816.307007	242.000000
816.342224	230.000000
816.377441	231.000000
816.412659	233.000000
816.447876	234.000000
816.483093	237.000000
816.518250	235.000000
816.553467	230.000000
816.588745	234.000000
816.623901	227.000000
816.659119	224.000000
816.694275	229.000000
816.729492	222.000000
816.764709	258.000000
816.799927	220.000000
816.835083	224.000000
816.870300	222.000000
816.905457	227.000000
816.940674	225.000000
816.975830	221.000000
817.010986	217.000000
817.046204	221.000000
817.081421	219.000000
817.116577	219.000000
817.151733	227.000000
817.186951	230.000000
817.222107	224.000000
817.257324	224.000000
817.292419	221.000000
817.327637	218.000000
817.362854	221.000000
817.398010	218.000000
817.433167	214.000000
817.468323	218.000000
817.503479	216.000000
817.538635	223.000000
817.573853	221.000000
817.608948	218.000000
817.644165	217.000000
817.679321	214.000000
817.714478	215.000000
817.749634	221.000000
817.784790	229.000000
817.819946	222.000000
817.855103	205.000000
817.890198	214.000000
817.925415	212.000000
817.960571	217.000000
817.995667	217.000000
818.030823	218.000000
818.066040	207.000000
818.101135	211.000000
818.136292	217.000000
818.171448	205.000000
818.206543	215.000000
818.241699	212.000000
818.276855	213.000000
818.311951	212.000000
818.347107	207.000000
818.382263	212.000000
818.417358	219.000000
818.452515	220.000000
818.487610	222.000000
818.522766	203.000000
818.557922	221.000000
818.593018	212.000000
818.628113	210.000000
818.663269	207.000000
818.698364	213.000000
818.733521	204.000000
818.768677	211.000000
818.803711	202.000000
818.838867	209.000000
818.874023	210.000000
818.909058	205.000000
818.944214	202.000000
818.979370	213.000000
819.014404	205.000000
819.049561	204.000000
819.084595	208.000000
819.119751	204.000000
819.154846	209.000000
819.189941	207.000000
819.225037	206.000000
819.260193	197.000000
819.295227	201.000000
819.330322	192.000000
819.365479	197.000000
819.400513	226.000000
819.435608	193.000000
819.470764	186.000000
819.505798	199.000000
819.540894	202.000000
819.575989	199.000000
819.611084	204.000000
819.646179	208.000000
819.681213	201.000000
819.716309	202.000000
819.751404	195.000000
819.786438	206.000000
819.821533	195.000000
819.856628	200.000000
819.891663	199.000000
819.926758	213.000000
819.961853	204.000000
819.996887	199.000000
820.031982	202.000000
820.067017	197.000000
820.102112	225.000000
820.137207	196.000000
820.172302	212.000000
820.207275	195.000000
820.242371	195.000000
820.277405	198.000000
820.312500	197.000000
820.347534	201.000000
820.382568	203.000000
820.417664	197.000000
820.452759	195.000000
820.487732	197.000000
820.522827	194.000000
820.557861	194.000000
820.592896	194.000000
820.627930	194.000000
820.662964	194.000000
820.698059	200.000000
820.733093	198.000000
820.768127	199.000000
820.803162	196.000000
820.838196	195.000000
820.873230	201.000000
820.908264	198.000000
820.943298	194.000000
820.978333	201.000000
821.013367	198.000000
821.048401	206.000000
821.083435	202.000000
821.118469	185.000000
821.153503	199.000000
821.188477	192.000000
821.223511	190.000000
821.258484	197.000000
821.293579	201.000000
821.328613	185.000000
821.363647	196.000000
821.398621	187.000000
821.433655	194.000000
821.468628	205.000000
821.503662	196.000000
821.538696	197.000000
821.573669	194.000000
821.608704	201.000000
821.643677	196.000000
821.678650	200.000000
821.713684	205.000000
821.748718	190.000000
821.783691	195.000000
821.818726	194.000000
821.853638	201.000000
821.888672	189.000000
821.923706	197.000000
821.958618	191.000000
821.993652	193.000000
822.028687	202.000000
822.063599	202.000000
822.098633	195.000000
822.133667	193.000000
822.168579	192.000000
822.203613	198.000000
822.238586	194.000000
822.273560	196.000000
822.308533	189.000000
822.343567	194.000000
822.378479	191.000000
822.413452	198.000000
822.448425	192.000000
822.483398	200.000000
822.518372	204.000000
822.553345	192.000000
822.588318	206.000000
822.623291	195.000000
822.658203	197.000000
822.693237	198.000000
822.728210	193.000000
822.763123	194.000000
822.798096	193.000000
822.833069	193.000000
822.867981	194.000000
822.902954	198.000000
822.937927	199.000000
822.972900	202.000000
823.007874	185.000000
823.042725	195.000000
823.077698	201.000000
823.112671	188.000000
823.147583	194.000000
823.182556	195.000000
823.217529	201.000000
823.252441	192.000000
823.287415	211.000000
823.322388	196.000000
823.357239	195.000000
823.392212	196.000000
823.427185	197.000000
823.462097	188.000000
823.497009	197.000000
823.531982	190.000000
823.566895	197.000000
823.601807	188.000000
823.636719	192.000000
823.671631	198.000000
823.706604	193.000000
823.741455	197.000000
823.776428	188.000000
823.811340	197.000000
823.846252	199.000000
823.881165	199.000000
823.916138	197.000000
823.950989	204.000000
823.985901	190.000000
824.020813	200.000000
824.055725	194.000000
824.090637	193.000000
824.125610	195.000000
824.160461	193.000000
824.195374	197.000000
824.230225	202.000000
824.265198	187.000000
824.300110	194.000000
824.334961	202.000000
824.369873	184.000000
824.404785	196.000000
824.439636	203.000000
824.474548	186.000000
824.509460	184.000000
824.544312	199.000000
824.579224	198.000000
824.614075	197.000000
824.648987	196.000000
824.683899	193.000000
824.718811	187.000000
824.753662	202.000000
824.788574	201.000000
824.823364	193.000000
824.858276	194.000000
824.893188	197.000000
824.928040	200.000000
824.962952	193.000000
824.997803	201.000000
825.032654	194.000000
825.067566	203.000000
825.102417	189.000000
825.137268	192.000000
825.172119	192.000000
825.206970	190.000000
825.241882	191.000000
825.276733	190.000000
825.311646	189.000000
825.346436	189.000000
825.381348	190.000000
825.416138	194.000000
825.450989	189.000000
825.485901	191.000000
825.520691	185.000000
825.555542	184.000000
825.590454	193.000000
825.625244	186.000000
825.660095	205.000000
825.695007	201.000000
825.729797	193.000000
825.764648	187.000000
825.799438	194.000000
825.834290	196.000000
825.869202	191.000000
825.903992	194.000000
825.938843	189.000000
825.973694	185.000000
826.008484	206.000000
826.043335	189.000000
826.078186	183.000000
826.112976	198.000000
826.147827	202.000000
826.182678	203.000000
826.217468	187.000000
826.252319	198.000000
826.287109	191.000000
826.321899	199.000000
826.356750	193.000000
826.391541	186.000000
826.426392	199.000000
826.461182	190.000000
826.495972	186.000000
826.530823	181.000000
826.565613	193.000000
826.600403	184.000000
826.635254	198.000000
826.670044	182.000000
826.704834	188.000000
826.739685	189.000000
826.774475	192.000000
826.809265	189.000000
826.844055	192.000000
826.878906	197.000000
826.913635	193.000000
826.948425	195.000000
826.983215	194.000000
827.018005	194.000000
827.052856	190.000000
827.087585	198.000000
827.122375	185.000000
827.157227	190.000000
827.191956	203.000000
827.226746	190.000000
827.261536	199.000000
827.296265	183.000000
827.331116	192.000000
827.365906	198.000000
827.400635	190.000000
827.435425	186.000000
827.470215	202.000000
827.504944	192.000000
827.539734	193.000000
827.574463	194.000000
827.609253	201.000000
827.644043	197.000000
827.678772	198.000000
827.713562	193.000000
827.748352	193.000000
827.783081	190.000000
827.817871	193.000000
827.852600	191.000000
827.887329	194.000000
827.922119	184.000000
827.956848	199.000000
827.991638	206.000000
828.026367	194.000000
828.061157	192.000000
828.095886	190.000000
828.130615	205.000000
828.165344	182.000000
828.200073	194.000000
828.234863	190.000000
828.269592	196.000000
828.304321	200.000000
828.339111	195.000000
828.373779	184.000000
828.408569	197.000000
828.443298	195.000000
828.477966	189.000000
828.512756	191.000000
828.547424	190.000000
828.582214	191.000000
828.616943	189.000000
828.651672	188.000000
828.686340	197.000000
828.721130	192.000000
828.755798	192.000000
828.790527	188.000000
828.825256	196.000000
828.859924	192.000000
828.894714	201.000000
828.929443	200.000000
828.964111	190.000000
828.998840	191.000000
829.033569	191.000000
829.068237	190.000000
829.102966	191.000000
829.137634	198.000000
829.172363	197.000000
829.207092	199.000000
829.241821	189.000000
829.276489	186.000000
829.311157	192.000000
829.345825	192.000000
829.380554	197.000000
829.415283	191.000000
829.449951	185.000000
829.484619	205.000000
829.519348	198.000000
829.554016	195.000000
829.588745	193.000000
829.623413	189.000000
829.658081	205.000000
829.692749	187.000000
829.727417	196.000000
829.762146	193.000000
829.796814	188.000000
829.831482	193.000000
829.866150	193.000000
829.900879	192.000000
829.935486	193.000000
829.970154	192.000000
830.004883	201.000000
830.039490	197.000000
830.074219	187.000000
830.108887	195.000000
830.143494	186.000000
830.178223	190.000000
830.212891	187.000000
830.247498	195.000000
830.282166	198.000000
830.316772	198.000000
830.351501	191.000000
830.386169	196.000000
830.420776	183.000000
830.455444	194.000000
830.490112	187.000000
830.524719	182.000000
830.559387	195.000000
830.594055	193.000000
830.628662	189.000000
830.663330	195.000000
830.697998	203.000000
830.732605	193.000000
830.767273	197.000000
830.801941	193.000000
830.836487	201.000000
830.871155	195.000000
830.905762	194.000000
830.940430	184.000000
830.975098	192.000000
831.009644	192.000000
831.044312	202.000000
831.078979	192.000000
831.113525	188.000000
831.148193	194.000000
831.182861	192.000000
831.217407	198.000000
831.252075	212.000000
831.286621	189.000000
831.321289	190.000000
831.355896	190.000000
831.390564	202.000000
831.425110	192.000000
831.459778	200.000000
831.494324	203.000000
831.528931	197.000000
831.563599	195.000000
831.598145	187.000000
831.632751	189.000000
831.667419	190.000000
831.701965	192.000000
831.736572	199.000000
831.771179	180.000000
831.805786	189.000000
831.840393	199.000000
831.874939	182.000000
831.909546	197.000000
831.944153	184.000000
831.978760	190.000000
832.013306	190.000000
832.047913	201.000000
832.082458	199.000000
832.117065	186.000000
832.151672	201.000000
832.186218	196.000000
832.220825	199.000000
832.255432	185.000000
832.289978	190.000000
832.324585	192.000000
832.359192	199.000000
832.393677	192.000000
832.428284	196.000000
832.462830	193.000000
832.497437	191.000000
832.531982	196.000000
832.566589	197.000000
832.601135	195.000000
832.635681	186.000000
832.670227	194.000000
832.704773	199.000000
832.739380	195.000000
832.773926	189.000000
832.808472	192.000000
832.843079	195.000000
832.877563	200.000000
832.912170	189.000000
832.946716	185.000000
832.981201	198.000000
833.015808	196.000000
833.050293	190.000000
833.084839	187.000000
833.119446	188.000000
833.153992	200.000000
833.188477	190.000000
833.223022	192.000000
833.257568	195.000000
833.292114	199.000000
833.326660	203.000000
833.361145	191.000000
833.395691	183.000000
833.430237	191.000000
833.464783	194.000000
833.499329	191.000000
833.533875	184.000000
833.568359	194.000000
833.602905	197.000000
833.637390	199.000000
833.671875	192.000000
833.706421	189.000000
833.740906	189.000000
833.775452	186.000000
833.809998	190.000000
833.844482	201.000000
833.879028	188.000000
833.913513	189.000000
833.947998	199.000000
833.982544	187.000000
834.017090	189.000000
834.051514	185.000000
834.086060	197.000000
834.120544	194.000000
834.155029	195.000000
834.189575	189.000000
834.223999	195.000000
834.258545	198.000000
834.293030	197.000000
834.327515	191.000000
834.362000	190.000000
834.396545	202.000000
834.430969	193.000000
834.465454	193.000000
834.500000	187.000000
834.534424	196.000000
834.568970	187.000000
834.603455	182.000000
834.637878	192.000000
834.672363	195.000000
834.706909	194.000000
834.741333	188.000000
834.775818	185.000000
834.810242	186.000000
834.844727	198.000000
834.879211	193.000000
834.913635	196.000000
834.948181	191.000000
834.982666	199.000000
835.017090	191.000000
835.051575	195.000000
835.086060	192.000000
835.120483	198.000000
835.154907	199.000000
835.189331	194.000000
835.223816	192.000000
835.258301	188.000000
835.292786	187.000000
835.327209	200.000000
835.361694	188.000000
835.396057	189.000000
835.430542	197.000000
835.465027	195.000000
835.499390	187.000000
835.533875	217.000000
835.568359	193.000000
835.602722	188.000000
835.637207	195.000000
835.671692	189.000000
835.706055	208.000000
835.740540	194.000000
835.774902	198.000000
835.809387	196.000000
835.843811	190.000000
835.878235	201.000000
835.912659	189.000000
835.947083	189.000000
835.981506	195.000000
836.015930	185.000000
836.050354	199.000000
836.084778	201.000000
836.119202	200.000000
836.153625	205.000000
836.187988	194.000000
836.222473	189.000000
836.256897	196.000000
836.291260	188.000000
836.325684	197.000000
836.360046	187.000000
836.394470	190.000000
836.428894	200.000000
836.463318	190.000000
836.497681	195.000000
836.532104	203.000000
836.566467	193.000000
836.600891	191.000000
836.635315	197.000000
836.669678	196.000000
836.704102	196.000000
836.738525	194.000000
836.772888	185.000000
836.807251	188.000000
836.841675	196.000000
836.876038	189.000000
836.910461	185.000000
836.944763	197.000000
836.979187	192.000000
837.013611	199.000000
837.047974	186.000000
837.082336	207.000000
837.116699	195.000000
837.151062	194.000000
837.185486	186.000000
837.219849	191.000000
837.254211	199.000000
837.288574	194.000000
837.322937	189.000000
837.357300	179.000000
837.391663	207.000000
837.426086	197.000000
837.460388	193.000000
837.494751	200.000000
837.529114	191.000000
837.563477	198.000000
837.597839	201.000000
837.632141	189.000000
837.666565	188.000000
837.700928	193.000000
837.735229	198.000000
837.769592	191.000000
837.803955	201.000000
837.838257	190.000000
837.872620	189.000000
837.906982	201.000000
837.941284	194.000000
837.975647	190.000000
838.010010	204.000000
838.044312	195.000000
838.078674	193.000000
838.112976	190.000000
838.147339	196.000000
838.181702	193.000000
838.216003	206.000000
838.250366	195.000000
838.284668	192.000000
838.318970	181.000000
838.353333	196.000000
838.387634	193.000000
838.421936	193.000000
838.456299	194.000000
838.490601	202.000000
838.524902	194.000000
838.559265	203.000000
838.593567	193.000000
838.627869	185.000000
838.662170	198.000000
838.696472	185.000000
838.730774	189.000000
838.765137	198.000000
838.799377	179.000000
838.833740	197.000000
838.868042	201.000000
838.902283	185.000000
838.936646	199.000000
838.970947	193.000000
839.005188	202.000000
839.039551	183.000000
839.073792	200.000000
839.108093	190.000000
839.142395	204.000000
839.176697	185.000000
839.210937	194.000000
839.245300	206.000000
839.279541	185.000000
839.313843	189.000000
839.348145	197.000000
839.382385	197.000000
839.416687	203.000000
839.450989	197.000000
839.485229	194.000000
839.519531	190.000000
839.553833	196.000000
839.588013	189.000000
839.622314	196.000000
839.656555	191.000000
839.690857	191.000000
839.725159	187.000000
839.759460	193.000000
839.793640	187.000000
839.827942	194.000000
839.862183	189.000000
839.896423	195.000000
839.930725	203.000000
839.964966	202.000000
839.999207	200.000000
840.033508	199.000000
840.067688	192.000000
840.101990	201.000000
840.136230	188.000000
840.170471	200.000000
840.204712	191.000000
840.238953	191.000000
840.273193	193.000000
840.307434	198.000000
840.341736	187.000000
840.375916	188.000000
840.410217	193.000000
840.444397	200.000000
840.478638	196.000000
840.512878	201.000000
840.547119	198.000000
840.581360	197.000000
840.615601	205.000000
840.649780	201.000000
840.684021	193.000000
840.718262	200.000000
840.752441	201.000000
840.786682	195.000000
840.820862	197.000000
840.855103	200.000000
840.889343	198.000000
840.923584	197.000000
840.957764	198.000000
840.992004	197.000000
841.026184	208.000000
841.060425	195.000000
841.094666	192.000000
841.128845	200.000000
841.163025	196.000000
841.197266	193.000000
841.231445	193.000000
841.265686	192.000000
841.299866	189.000000
841.334045	201.000000
841.368286	196.000000
841.402405	202.000000
841.436646	196.000000
841.470825	193.000000
841.505005	192.000000
841.539185	188.000000
841.573425	190.000000
841.607544	193.000000
841.641785	191.000000
841.675964	183.000000
841.710144	198.000000
841.744324	186.000000
841.778503	193.000000
841.812683	190.000000
841.846863	200.000000
841.881042	204.000000
841.915222	193.000000
841.949402	210.000000
841.983521	187.000000
842.017700	190.000000
842.051880	197.000000
842.086060	193.000000
842.120239	193.000000
842.154419	193.000000
842.188538	195.000000
842.222717	190.000000
842.256897	202.000000
842.291016	191.000000
842.325195	196.000000
842.359375	207.000000
842.393494	202.000000
842.427673	196.000000
842.461853	195.000000
842.495911	202.000000
842.530090	197.000000
842.564209	195.000000
842.598389	197.000000
842.632568	201.000000
842.666626	196.000000
842.700806	191.000000
842.734985	193.000000
842.769043	199.000000
842.803223	192.000000
842.837402	194.000000
842.871460	193.000000
842.905640	203.000000
842.939697	187.000000
842.973877	195.000000
843.007996	199.000000
843.042175	203.000000
843.076233	188.000000
843.110413	195.000000
843.144470	200.000000
843.178589	199.000000
843.212769	190.000000
843.246826	196.000000
843.280945	190.000000
843.315125	191.000000
843.349182	186.000000
843.383301	199.000000
843.417419	202.000000
843.451538	195.000000
843.485657	193.000000
843.519714	193.000000
843.553833	192.000000
843.587952	189.000000
843.622070	191.000000
843.656128	198.000000
843.690247	195.000000
843.724304	191.000000
843.758423	197.000000
843.792542	193.000000
843.826599	192.000000
843.860718	193.000000
843.894836	188.000000
843.928894	194.000000
843.963013	197.000000
843.997070	188.000000
844.031128	189.000000
844.065247	203.000000
844.099304	199.000000
844.133362	194.000000
844.167480	196.000000
844.201599	198.000000
844.235596	196.000000
844.269714	192.000000
844.303711	197.000000
844.337830	184.000000
844.371948	199.000000
844.405945	191.000000
844.440063	189.000000
844.474121	203.000000
844.508118	192.000000
844.542236	193.000000
844.576294	192.000000
844.610352	187.000000
844.644409	193.000000
844.678406	182.000000
844.712524	197.000000
844.746582	201.000000
844.780640	191.000000
844.814636	193.000000
844.848755	202.000000
844.882751	187.000000
844.916809	201.000000
844.950867	196.000000
844.984863	203.000000
845.018921	192.000000
845.052979	192.000000
845.086975	194.000000
845.121033	187.000000
845.155090	189.000000
845.189087	202.000000
845.223145	191.000000
845.257141	195.000000
845.291199	199.000000
845.325256	204.000000
845.359253	192.000000
845.393250	204.000000
845.427307	193.000000
845.461304	195.000000
845.495361	195.000000
845.529358	202.000000
845.563354	191.000000
845.597412	193.000000
845.631409	203.000000
845.665405	200.000000
845.699463	200.000000
845.733459	193.000000
845.767456	201.000000
845.801453	190.000000
845.835449	205.000000
845.869446	194.000000
845.903503	202.000000
845.937439	188.000000
845.971497	202.000000
846.005493	189.000000
846.039429	199.000000
846.073486	203.000000
846.107483	193.000000
846.141418	193.000000
846.175476	195.000000
846.209473	198.000000
846.243408	194.000000
846.277405	192.000000
846.311401	190.000000
846.345337	194.000000
846.379395	197.000000
846.413330	193.000000
846.447327	203.000000
846.481323	186.000000
846.515259	198.000000
846.549255	191.000000
846.583252	197.000000
846.617187	191.000000
846.651184	198.000000
846.685120	192.000000
846.719055	202.000000
846.753052	197.000000
846.786987	197.000000
846.820984	182.000000
846.854980	200.000000
846.888916	185.000000
846.922852	197.000000
846.956848	206.000000
846.990723	190.000000
847.024719	196.000000
847.058716	194.000000
847.092590	203.000000
847.126587	196.000000
847.160522	196.000000
847.194458	198.000000
847.228455	191.000000
847.262390	186.000000
847.296265	194.000000
847.330261	199.000000
847.364136	193.000000
847.398132	189.000000
847.432068	195.000000
847.466003	189.000000
847.499939	195.000000
847.533875	193.000000
847.567749	194.000000
847.601746	193.000000
847.635681	197.000000
847.669556	185.000000
847.703491	200.000000
847.737427	207.000000
847.771301	190.000000
847.805237	195.000000
847.839233	194.000000
847.873108	191.000000
847.907043	195.000000
847.940918	201.000000
847.974854	198.000000
848.008789	195.000000
848.042664	193.000000
848.076538	197.000000
848.110474	193.000000
848.144348	195.000000
848.178284	193.000000
848.212219	190.000000
848.246094	192.000000
848.279968	197.000000
848.313904	199.000000
848.347778	194.000000
848.381653	191.000000
848.415588	189.000000
848.449463	195.000000
848.483337	199.000000
848.517212	203.000000
848.551086	194.000000
848.585022	194.000000
848.618835	203.000000
848.652771	191.000000
848.686646	191.000000
848.720520	202.000000
848.754395	195.000000
848.788330	199.000000
848.822144	198.000000
848.856018	193.000000
848.889954	204.000000
848.923767	189.000000
848.957642	193.000000
848.991577	199.000000
849.025391	193.000000
849.059265	193.000000
849.093079	193.000000
849.126953	191.000000
849.160828	199.000000
849.194641	193.000000
849.228577	191.000000
849.262451	190.000000
849.296265	193.000000
849.330139	188.000000
849.364014	199.000000
849.397827	198.000000
849.431702	198.000000
849.465515	199.000000
849.499329	189.000000
849.533203	191.000000
849.567078	185.000000
849.600891	192.000000
849.634766	195.000000
849.668518	198.000000
849.702393	199.000000
849.736267	187.000000
849.770020	207.000000
849.803894	195.000000
849.837769	193.000000
849.871521	195.000000
849.905396	203.000000
849.939270	186.000000
849.973022	195.000000
850.006897	201.000000
850.040710	203.000000
850.074524	200.000000
850.108337	198.000000
850.142151	198.000000
850.175964	204.000000
850.209778	192.000000
850.243530	187.000000
850.277405	201.000000
850.311218	196.000000
850.344971	192.000000
850.378845	203.000000
850.412659	195.000000
850.446411	197.000000
850.480225	194.000000
850.514038	199.000000
850.547791	198.000000
850.581665	195.000000
850.615417	191.000000
850.649231	197.000000
850.683044	193.000000
850.716858	190.000000
850.750610	195.000000
850.784424	198.000000
850.818176	191.000000
850.851929	190.000000
850.885742	193.000000
850.919495	189.000000
850.953308	203.000000
850.987122	203.000000
851.020874	192.000000
851.054626	181.000000
851.088440	199.000000
851.122192	198.000000
851.156006	196.000000
851.189697	193.000000
851.223511	190.000000
851.257263	196.000000
851.291077	199.000000
851.324829	189.000000
851.358582	195.000000
851.392334	192.000000
851.426086	194.000000
851.459900	201.000000
851.493591	197.000000
851.527344	194.000000
851.561157	197.000000
851.594849	196.000000
851.628662	198.000000
851.662415	201.000000
851.696106	198.000000
851.729858	201.000000
851.763611	193.000000
851.797363	200.000000
851.831116	194.000000
851.864868	201.000000
851.898560	201.000000
851.932312	193.000000
851.966064	198.000000
851.999817	195.000000
852.033569	191.000000
852.067261	200.000000
852.101013	192.000000
852.134766	192.000000
852.168457	185.000000
852.202209	200.000000
852.235901	186.000000
852.269592	197.000000
852.303345	201.000000
852.337036	201.000000
852.370789	195.000000
852.404541	199.000000
852.438171	189.000000
852.471924	194.000000
852.505676	185.000000
852.539307	199.000000
852.573059	188.000000
852.606812	195.000000
852.640442	191.000000
852.674194	202.000000
852.707886	200.000000
852.741577	206.000000
852.775269	185.000000
852.809021	195.000000
852.842651	196.000000
852.876404	202.000000
852.910034	195.000000
852.943787	201.000000
852.977478	200.000000
853.011108	191.000000
853.044861	195.000000
853.078552	204.000000
853.112183	196.000000
853.145874	197.000000
853.179626	185.000000
853.213257	196.000000
853.246948	194.000000
853.280640	201.000000
853.314270	197.000000
853.347961	205.000000
853.381653	197.000000
853.415283	199.000000
853.448975	193.000000
853.482605	199.000000
853.516296	198.000000
853.549988	191.000000
853.583618	196.000000
853.617310	197.000000
853.651001	198.000000
853.684631	190.000000
853.718323	194.000000
853.751953	201.000000
853.785583	189.000000
853.819275	199.000000
853.852966	196.000000
853.886536	186.000000
853.920227	193.000000
853.953918	201.000000
853.987488	190.000000
854.021179	194.000000
854.054749	203.000000
854.088440	197.000000
854.122131	191.000000
854.155701	199.000000
854.189331	192.000000
854.223022	197.000000
854.256592	197.000000
854.290283	191.000000
854.323914	202.000000
854.357483	196.000000
854.391174	200.000000
854.424744	201.000000
854.458374	198.000000
854.492065	200.000000
854.525696	191.000000
854.559265	200.000000
854.592896	208.000000
854.626465	196.000000
854.660095	197.000000
854.693787	194.000000
854.727356	195.000000
854.760986	193.000000
854.794617	196.000000
854.828186	194.000000
854.861816	197.000000
854.895447	194.000000
854.929016	198.000000
854.962585	198.000000
854.996155	204.000000
855.029785	193.000000
855.063416	193.000000
855.097046	201.000000
855.130615	194.000000
855.164185	205.000000
855.197754	196.000000
855.231384	200.000000
855.264954	191.000000
855.298523	203.000000
855.332153	196.000000
855.365723	205.000000
855.399292	189.000000
855.432922	193.000000
855.466492	193.000000
855.500061	191.000000
855.533630	188.000000
855.567200	201.000000
855.600769	202.000000
855.634338	201.000000
855.667969	195.000000
855.701477	193.000000
855.735046	188.000000
855.768616	187.000000
855.802185	195.000000
855.835754	209.000000
855.869324	183.000000
855.902893	190.000000
855.936401	201.000000
855.969971	198.000000
856.003540	184.000000
856.037109	197.000000
856.070618	191.000000
856.104187	188.000000
856.137695	191.000000
856.171265	186.000000
856.204834	196.000000
856.238403	200.000000
856.271912	193.000000
856.305481	196.000000
856.338989	188.000000
856.372559	198.000000
856.406128	195.000000
856.439636	201.000000
856.473145	196.000000
856.506653	203.000000
856.540222	199.000000
856.573792	205.000000
856.607300	197.000000
856.640808	188.000000
856.674377	196.000000
856.707825	223.000000
856.741394	201.000000
856.774902	189.000000
856.808472	187.000000
856.841980	199.000000
856.875488	204.000000
856.908936	188.000000
856.942505	197.000000
856.976013	194.000000
857.009521	192.000000
857.043030	189.000000
857.076477	198.000000
857.110046	198.000000
857.143555	196.000000
857.177063	197.000000
857.210571	194.000000
857.244080	185.000000
857.277527	195.000000
857.311035	193.000000
857.344543	200.000000
857.378052	192.000000
857.411499	198.000000
857.445068	201.000000
857.478516	198.000000
857.512024	187.000000
857.545532	192.000000
857.578979	192.000000
857.612427	196.000000
857.645874	188.000000
857.679382	198.000000
857.712891	197.000000
857.746399	198.000000
857.779846	201.000000
857.813354	200.000000
857.846741	191.000000
857.880249	189.000000
857.913757	189.000000
857.947266	195.000000
857.980652	199.000000
858.014160	195.000000
858.047546	189.000000
858.081055	196.000000
858.114563	205.000000
858.147949	189.000000
858.181458	203.000000
858.214844	195.000000
858.248352	190.000000
858.281799	198.000000
858.315308	211.000000
858.348694	199.000000
858.382141	205.000000
858.415588	200.000000
858.449036	201.000000
858.482483	196.000000
858.515930	196.000000
858.549377	194.000000
858.582825	205.000000
858.616211	198.000000
858.649658	197.000000
858.683105	189.000000
858.716553	194.000000
858.750000	187.000000
858.783386	196.000000
858.816833	184.000000
858.850281	199.000000
858.883728	197.000000
858.917114	195.000000
858.950562	201.000000
858.983948	206.000000
859.017395	197.000000
859.050781	194.000000
859.084167	186.000000
859.117615	189.000000
859.151062	197.000000
859.184448	192.000000
859.217834	189.000000
859.251282	191.000000
859.284668	187.000000
859.318054	182.000000
859.351440	191.000000
859.384888	205.000000
859.418274	184.000000
859.451721	183.000000
859.485046	195.000000
859.518494	199.000000
859.551819	189.000000
859.585266	195.000000
859.618652	197.000000
859.652039	191.000000
859.685425	192.000000
859.718811	191.000000
859.752197	184.000000
859.785583	204.000000
859.819031	205.000000
859.852356	200.000000
859.885742	192.000000
859.919067	196.000000
859.952454	195.000000
859.985901	202.000000
860.019287	192.000000
860.052612	0.000000
860.085999	0.000000
860.119324	0.000000
860.152710	0.000000
860.186096	0.000000
860.219421	0.000000
860.252808	0.000000
860.286133	0.000000
860.319519	0.000000
860.352905	0.000000
860.386292	0.000000
860.419617	0.000000
860.452942	0.000000
860.486267	0.000000
860.519653	0.000000
860.553040	0.000000
860.586365	0.000000
860.619690	0.000000
860.653076	0.000000
860.686340	0.000000
860.719727	0.000000
860.753113	0.000000
860.786377	0.000000
860.819763	0.000000
860.853027	0.000000
860.886414	0.000000
860.919739	0.000000
860.953125	0.000000
860.986389	0.000000
861.019714	0.000000
861.053040	0.000000
861.086365	0.000000
861.119690	0.000000
861.153076	0.000000
861.186340	0.000000
861.219666	0.000000
861.252930	0.000000
861.286316	0.000000
861.319641	0.000000
861.352905	0.000000
861.386230	0.000000
861.419495	0.000000
861.452820	0.000000
861.486145	0.000000
861.519470	0.000000
861.552734	0.000000
861.586060	0.000000
861.619324	0.000000
861.652649	0.000000
861.685974	0.000000
861.719238	0.000000
861.752563	0.000000
861.785828	0.000000
861.819092	0.000000
861.852417	0.000000
861.885742	0.000000
861.918945	0.000000
861.952271	0.000000
861.985535	0.000000
862.018799	0.000000
862.052124	0.000000
862.085449	0.000000
862.118652	0.000000
862.151978	0.000000
862.185181	0.000000
862.218506	0.000000
862.251770	0.000000
862.285034	0.000000
862.318298	0.000000
862.351562	0.000000
862.384827	0.000000
862.418091	0.000000
862.451355	0.000000
862.484619	0.000000
862.517883	0.000000
862.551086	0.000000
862.584351	0.000000
862.617676	0.000000
862.650940	0.000000
862.684143	0.000000
862.717407	0.000000
862.750610	0.000000
862.783875	0.000000
862.817139	0.000000
862.850342	0.000000
862.883606	0.000000
862.916870	0.000000
862.950073	0.000000
862.983337	0.000000
863.016602	0.000000
863.049805	0.000000
863.083069	0.000000
863.116211	0.000000
863.149475	0.000000
863.182739	0.000000
863.216003	0.000000
863.249146	0.000000
863.282410	0.000000
863.315613	0.000000
863.348816	0.000000
863.382080	0.000000
863.415222	0.000000
863.448486	0.000000
863.481689	0.000000
863.514893	0.000000
863.548157	0.000000
863.581360	0.000000
863.614502	0.000000
863.647766	0.000000
863.680908	0.000000
863.714172	0.000000
863.747375	0.000000
863.780579	0.000000
863.813721	0.000000
863.846985	0.000000
863.880127	0.000000
863.913330	0.000000
863.946533	0.000000
863.979675	0.000000
864.012939	0.000000
