Model Number: SPM-001-M   
Serial Number: 10090201
Firmware Version: 004.17.6
Exposure Time: 500000.000000us
Data Taken on: 27-08-2020 10:00:51.972
Wavelength	Amplitude
733.770752	0.000000
733.808716	0.000000
733.846619	0.000000
733.884583	0.000000
733.922546	0.000000
733.960449	0.000000
733.998413	0.000000
734.036377	0.000000
734.074219	0.000000
734.112183	0.000000
734.150085	0.000000
734.188049	0.000000
734.226013	0.000000
734.263916	0.000000
734.301819	0.000000
734.339783	0.000000
734.377686	0.000000
734.415588	0.000000
734.453552	0.000000
734.491455	0.000000
734.529419	0.000000
734.567322	0.000000
734.605225	0.000000
734.643127	0.000000
734.681091	0.000000
734.718994	0.000000
734.756897	0.000000
734.794800	0.000000
734.832703	0.000000
734.870667	0.000000
734.908508	0.000000
734.946472	0.000000
734.984375	0.000000
735.022278	0.000000
735.060181	0.000000
735.098083	0.000000
735.135986	0.000000
735.173889	0.000000
735.211792	0.000000
735.249695	0.000000
735.287598	0.000000
735.325439	0.000000
735.363403	0.000000
735.401306	0.000000
735.439148	0.000000
735.477051	0.000000
735.515015	0.000000
735.552856	0.000000
735.590759	0.000000
735.628662	0.000000
735.666504	0.000000
735.704407	0.000000
735.742310	0.000000
735.780212	0.000000
735.818115	0.000000
735.856018	0.000000
735.893860	0.000000
735.931763	0.000000
735.969604	0.000000
736.007507	0.000000
736.045410	0.000000
736.083252	0.000000
736.121094	0.000000
736.158997	0.000000
736.196838	0.000000
736.234741	0.000000
736.272644	0.000000
736.310486	0.000000
736.348389	0.000000
736.386230	0.000000
736.424072	0.000000
736.461975	0.000000
736.499878	0.000000
736.537720	0.000000
736.575562	0.000000
736.613403	0.000000
736.651306	0.000000
736.689148	0.000000
736.726990	0.000000
736.764893	0.000000
736.802734	0.000000
736.840576	0.000000
736.878418	0.000000
736.916321	0.000000
736.954102	0.000000
736.992004	0.000000
737.029846	0.000000
737.067688	0.000000
737.105530	0.000000
737.143372	0.000000
737.181213	0.000000
737.219116	0.000000
737.256897	0.000000
737.294739	0.000000
737.332642	0.000000
737.370422	0.000000
737.408325	0.000000
737.446167	0.000000
737.483948	0.000000
737.521790	0.000000
737.559692	0.000000
737.597473	0.000000
737.635315	0.000000
737.673157	0.000000
737.710999	0.000000
737.748840	0.000000
737.786621	0.000000
737.824463	0.000000
737.862305	0.000000
737.900085	0.000000
737.937927	0.000000
737.975769	0.000000
738.013550	0.000000
738.051392	0.000000
738.089233	0.000000
738.127014	0.000000
738.164856	0.000000
738.202698	0.000000
738.240479	0.000000
738.278320	0.000000
738.316162	0.000000
738.353943	0.000000
738.391785	0.000000
738.429565	0.000000
738.467407	0.000000
738.505188	0.000000
738.542969	0.000000
738.580811	0.000000
738.618652	0.000000
738.656372	0.000000
738.694214	0.000000
738.732056	0.000000
738.769836	0.000000
738.807617	0.000000
738.845459	0.000000
738.883240	0.000000
738.921021	0.000000
738.958862	0.000000
738.996582	0.000000
739.034424	0.000000
739.072205	0.000000
739.109985	0.000000
739.147827	0.000000
739.185547	0.000000
739.223389	0.000000
739.261169	0.000000
739.298889	0.000000
739.336731	0.000000
739.374512	0.000000
739.412292	0.000000
739.450073	0.000000
739.487854	0.000000
739.525635	0.000000
739.563416	0.000000
739.601135	0.000000
739.638977	0.000000
739.676758	0.000000
739.714478	0.000000
739.752258	0.000000
739.790100	0.000000
739.827820	0.000000
739.865601	0.000000
739.903381	0.000000
739.941101	0.000000
739.978882	193.000000
740.016724	181.000000
740.054443	187.000000
740.092224	181.000000
740.130005	183.000000
740.167725	177.000000
740.205505	181.000000
740.243225	186.000000
740.281006	183.000000
740.318787	176.000000
740.356506	191.000000
740.394287	187.000000
740.432068	178.000000
740.469727	177.000000
740.507507	189.000000
740.545288	197.000000
740.583008	188.000000
740.620789	178.000000
740.658569	178.000000
740.696228	184.000000
740.734009	189.000000
740.771790	175.000000
740.809509	191.000000
740.847229	179.000000
740.884949	181.000000
740.922729	180.000000
740.960449	184.000000
740.998169	177.000000
741.035950	182.000000
741.073669	187.000000
741.111389	185.000000
741.149170	193.000000
741.186890	196.000000
741.224609	191.000000
741.262329	187.000000
741.300110	194.000000
741.337769	181.000000
741.375549	177.000000
741.413208	187.000000
741.450989	183.000000
741.488708	179.000000
741.526367	183.000000
741.564148	185.000000
741.601868	193.000000
741.639526	179.000000
741.677307	186.000000
741.715027	187.000000
741.752686	181.000000
741.790466	185.000000
741.828186	190.000000
741.865845	178.000000
741.903564	181.000000
741.941345	180.000000
741.979004	180.000000
742.016724	186.000000
742.054382	186.000000
742.092102	187.000000
742.129822	179.000000
742.167480	183.000000
742.205200	186.000000
742.242920	185.000000
742.280640	188.000000
742.318359	178.000000
742.356079	180.000000
742.393738	186.000000
742.431396	185.000000
742.469116	193.000000
742.506775	179.000000
742.544495	183.000000
742.582214	190.000000
742.619873	184.000000
742.657593	193.000000
742.695251	189.000000
742.732971	188.000000
742.770630	182.000000
742.808289	185.000000
742.846008	181.000000
742.883728	187.000000
742.921326	183.000000
742.959045	184.000000
742.996765	182.000000
743.034424	186.000000
743.072083	181.000000
743.109802	182.000000
743.147400	179.000000
743.185120	187.000000
743.222839	186.000000
743.260437	190.000000
743.298157	187.000000
743.335754	176.000000
743.373474	189.000000
743.411133	175.000000
743.448792	189.000000
743.486450	181.000000
743.524170	177.000000
743.561768	183.000000
743.599487	197.000000
743.637146	191.000000
743.674744	182.000000
743.712463	180.000000
743.750122	188.000000
743.787720	182.000000
743.825439	181.000000
743.863037	183.000000
743.900696	183.000000
743.938416	207.000000
743.976013	185.000000
744.013672	189.000000
744.051331	191.000000
744.088928	192.000000
744.126587	190.000000
744.164307	185.000000
744.201904	184.000000
744.239563	180.000000
744.277222	186.000000
744.314819	184.000000
744.352478	192.000000
744.390137	186.000000
744.427734	186.000000
744.465393	177.000000
744.502991	179.000000
744.540649	188.000000
744.578308	185.000000
744.615906	180.000000
744.653564	179.000000
744.691223	183.000000
744.728821	179.000000
744.766418	182.000000
744.804077	187.000000
744.841675	184.000000
744.879333	177.000000
744.916992	182.000000
744.954529	184.000000
744.992187	191.000000
745.029785	183.000000
745.067444	184.000000
745.105042	185.000000
745.142639	188.000000
745.180298	194.000000
745.217896	184.000000
745.255493	182.000000
745.293152	189.000000
745.330750	187.000000
745.368347	191.000000
745.405945	190.000000
745.443604	186.000000
745.481140	187.000000
745.518799	187.000000
745.556396	189.000000
745.593994	188.000000
745.631592	183.000000
745.669189	182.000000
745.706787	183.000000
745.744385	182.000000
745.781982	189.000000
745.819580	186.000000
745.857178	184.000000
745.894775	187.000000
745.932373	183.000000
745.969971	187.000000
746.007568	176.000000
746.045166	188.000000
746.082764	187.000000
746.120300	187.000000
746.157898	182.000000
746.195557	183.000000
746.233093	182.000000
746.270691	187.000000
746.308228	188.000000
746.345825	191.000000
746.383423	183.000000
746.420959	181.000000
746.458557	183.000000
746.496155	182.000000
746.533691	182.000000
746.571289	182.000000
746.608887	180.000000
746.646423	189.000000
746.684021	184.000000
746.721619	182.000000
746.759155	185.000000
746.796753	179.000000
746.834351	179.000000
746.871826	182.000000
746.909424	194.000000
746.946960	188.000000
746.984558	186.000000
747.022156	184.000000
747.059631	188.000000
747.097229	188.000000
747.134827	183.000000
747.172363	189.000000
747.209900	191.000000
747.247498	186.000000
747.285034	195.000000
747.322571	192.000000
747.360168	188.000000
747.397644	178.000000
747.435242	191.000000
747.472778	191.000000
747.510315	185.000000
747.547913	185.000000
747.585388	196.000000
747.622925	180.000000
747.660522	180.000000
747.697998	181.000000
747.735596	183.000000
747.773132	182.000000
747.810669	184.000000
747.848206	185.000000
747.885742	182.000000
747.923279	177.000000
747.960815	184.000000
747.998352	186.000000
748.035889	189.000000
748.073425	187.000000
748.110901	185.000000
748.148437	180.000000
748.185974	183.000000
748.223511	194.000000
748.261047	189.000000
748.298584	180.000000
748.336060	186.000000
748.373596	186.000000
748.411133	202.000000
748.448608	183.000000
748.486145	194.000000
748.523682	191.000000
748.561218	194.000000
748.598755	186.000000
748.636292	187.000000
748.673706	182.000000
748.711243	197.000000
748.748718	185.000000
748.786255	186.000000
748.823792	188.000000
748.861267	178.000000
748.898804	188.000000
748.936340	188.000000
748.973816	182.000000
749.011292	191.000000
749.048828	190.000000
749.086304	187.000000
749.123840	196.000000
749.161316	183.000000
749.198792	195.000000
749.236328	192.000000
749.273743	185.000000
749.311279	180.000000
749.348816	187.000000
749.386230	184.000000
749.423767	175.000000
749.461304	186.000000
749.498718	184.000000
749.536255	189.000000
749.573730	201.000000
749.611206	188.000000
749.648682	182.000000
749.686218	185.000000
749.723633	190.000000
749.761169	181.000000
749.798645	182.000000
749.836060	182.000000
749.873596	180.000000
749.911011	183.000000
749.948547	190.000000
749.986023	181.000000
750.023437	184.000000
750.060913	175.000000
750.098450	176.000000
750.135864	180.000000
750.173340	188.000000
750.210815	187.000000
750.248291	183.000000
750.285767	185.000000
750.323242	190.000000
750.360657	188.000000
750.398132	180.000000
750.435608	183.000000
750.473022	182.000000
750.510498	184.000000
750.547974	181.000000
750.585449	186.000000
750.622925	178.000000
750.660339	191.000000
750.697815	188.000000
750.735291	184.000000
750.772644	187.000000
750.810120	186.000000
750.847595	189.000000
750.885010	182.000000
750.922485	192.000000
750.959961	186.000000
750.997375	193.000000
751.034851	191.000000
751.072266	190.000000
751.109680	179.000000
751.147156	191.000000
751.184570	186.000000
751.221985	187.000000
751.259460	178.000000
751.296875	182.000000
751.334290	186.000000
751.371765	187.000000
751.409180	190.000000
751.446594	190.000000
751.484070	189.000000
751.521423	184.000000
751.558899	186.000000
751.596375	193.000000
751.633728	190.000000
751.671204	193.000000
751.708618	183.000000
751.746033	186.000000
751.783447	181.000000
751.820801	178.000000
751.858276	189.000000
751.895691	178.000000
751.933105	181.000000
751.970520	178.000000
752.007935	181.000000
752.045349	187.000000
752.082764	182.000000
752.120178	181.000000
752.157532	179.000000
752.195007	179.000000
752.232422	190.000000
752.269775	189.000000
752.307190	189.000000
752.344543	177.000000
752.382019	187.000000
752.419434	182.000000
752.456787	189.000000
752.494202	187.000000
752.531616	192.000000
752.568970	189.000000
752.606384	188.000000
752.643799	191.000000
752.681152	197.000000
752.718567	195.000000
752.755981	178.000000
752.793335	188.000000
752.830750	178.000000
752.868164	192.000000
752.905518	180.000000
752.942932	190.000000
752.980225	174.000000
753.017639	188.000000
753.055054	189.000000
753.092407	190.000000
753.129822	191.000000
753.167175	195.000000
753.204529	182.000000
753.241943	182.000000
753.279358	177.000000
753.316650	189.000000
753.354065	185.000000
753.391479	191.000000
753.428772	191.000000
753.466187	190.000000
753.503479	177.000000
753.540894	186.000000
753.578308	173.000000
753.615601	184.000000
753.653015	183.000000
753.690369	184.000000
753.727722	184.000000
753.765076	179.000000
753.802490	178.000000
753.839783	179.000000
753.877136	181.000000
753.914551	198.000000
753.951843	179.000000
753.989258	187.000000
754.026611	185.000000
754.063904	189.000000
754.101257	178.000000
754.138611	180.000000
754.175964	190.000000
754.213318	192.000000
754.250610	177.000000
754.288025	183.000000
754.325378	179.000000
754.362671	187.000000
754.400024	186.000000
754.437378	191.000000
754.474670	193.000000
754.512085	183.000000
754.549438	183.000000
754.586731	183.000000
754.624084	184.000000
754.661438	183.000000
754.698730	193.000000
754.736084	188.000000
754.773376	187.000000
754.810730	188.000000
754.848083	185.000000
754.885315	187.000000
754.922668	176.000000
754.960022	179.000000
754.997314	194.000000
755.034668	188.000000
755.072021	188.000000
755.109253	179.000000
755.146606	193.000000
755.183960	185.000000
755.221252	190.000000
755.258545	190.000000
755.295898	193.000000
755.333191	189.000000
755.370544	186.000000
755.407776	185.000000
755.445129	189.000000
755.482422	186.000000
755.519714	183.000000
755.557068	179.000000
755.594360	178.000000
755.631653	189.000000
755.668945	195.000000
755.706299	185.000000
755.743530	201.000000
755.780884	194.000000
755.818176	193.000000
755.855408	189.000000
755.892761	189.000000
755.930054	184.000000
755.967346	193.000000
756.004639	191.000000
756.041870	190.000000
756.079224	194.000000
756.116516	187.000000
756.153748	189.000000
756.191040	199.000000
756.228394	193.000000
756.265625	186.000000
756.302917	192.000000
756.340210	182.000000
756.377441	191.000000
756.414795	203.000000
756.452087	192.000000
756.489319	183.000000
756.526611	197.000000
756.563843	186.000000
756.601135	200.000000
756.638428	196.000000
756.675659	197.000000
756.712952	193.000000
756.750244	198.000000
756.787476	193.000000
756.824768	192.000000
756.862061	188.000000
756.899292	241.000000
756.936584	191.000000
756.973816	204.000000
757.011047	207.000000
757.048340	189.000000
757.085632	193.000000
757.122864	208.000000
757.160156	190.000000
757.197327	198.000000
757.234619	198.000000
757.271912	195.000000
757.309082	197.000000
757.346375	191.000000
757.383667	200.000000
757.420837	196.000000
757.458130	192.000000
757.495422	196.000000
757.532593	195.000000
757.569885	190.000000
757.607117	188.000000
757.644348	198.000000
757.681580	207.000000
757.718811	183.000000
757.756042	194.000000
757.793335	197.000000
757.830505	194.000000
757.867798	189.000000
757.905029	190.000000
757.942200	199.000000
757.979492	191.000000
758.016724	197.000000
758.053894	191.000000
758.091187	213.000000
758.128418	195.000000
758.165588	197.000000
758.202820	204.000000
758.240112	201.000000
758.277283	202.000000
758.314514	202.000000
758.351685	192.000000
758.388916	209.000000
758.426147	204.000000
758.463379	212.000000
758.500610	199.000000
758.537842	201.000000
758.575012	205.000000
758.612244	198.000000
758.649475	214.000000
758.686646	190.000000
758.723877	204.000000
758.761108	210.000000
758.798279	204.000000
758.835510	200.000000
758.872742	206.000000
758.909851	201.000000
758.947083	206.000000
758.984253	200.000000
759.021484	207.000000
759.058716	204.000000
759.095886	210.000000
759.133057	198.000000
759.170288	205.000000
759.207458	197.000000
759.244690	214.000000
759.281860	210.000000
759.319031	208.000000
759.356262	199.000000
759.393433	200.000000
759.430603	199.000000
759.467773	201.000000
759.505005	205.000000
759.542175	212.000000
759.579346	197.000000
759.616516	205.000000
759.653687	207.000000
759.690918	203.000000
759.728027	201.000000
759.765259	211.000000
759.802429	210.000000
759.839539	207.000000
759.876770	211.000000
759.913940	220.000000
759.951111	203.000000
759.988281	208.000000
760.025452	206.000000
760.062561	205.000000
760.099792	216.000000
760.136963	210.000000
760.174072	201.000000
760.211243	206.000000
760.248413	207.000000
760.285583	207.000000
760.322754	220.000000
760.359863	214.000000
760.397034	219.000000
760.434204	208.000000
760.471375	212.000000
760.508545	214.000000
760.545715	207.000000
760.582825	202.000000
760.619995	214.000000
760.657166	209.000000
760.694275	221.000000
760.731445	212.000000
760.768555	216.000000
760.805664	217.000000
760.842834	214.000000
760.879944	213.000000
760.917114	215.000000
760.954285	214.000000
760.991394	207.000000
761.028564	220.000000
761.065674	218.000000
761.102783	207.000000
761.139954	222.000000
761.177124	217.000000
761.214172	225.000000
761.251343	212.000000
761.288452	217.000000
761.325562	217.000000
761.362732	214.000000
761.399841	213.000000
761.436951	220.000000
761.474121	215.000000
761.511169	223.000000
761.548340	225.000000
761.585449	222.000000
761.622559	221.000000
761.659668	222.000000
761.696838	229.000000
761.733887	226.000000
761.771057	223.000000
761.808167	230.000000
761.845276	225.000000
761.882385	238.000000
761.919434	224.000000
761.956604	244.000000
761.993713	225.000000
762.030762	238.000000
762.067871	226.000000
762.105042	229.000000
762.142090	235.000000
762.179199	235.000000
762.216309	238.000000
762.253418	248.000000
762.290527	237.000000
762.327637	240.000000
762.364685	229.000000
762.401794	236.000000
762.438904	239.000000
762.475952	228.000000
762.513062	229.000000
762.550110	231.000000
762.587219	250.000000
762.624329	237.000000
762.661377	235.000000
762.698486	235.000000
762.735596	239.000000
762.772644	229.000000
762.809753	233.000000
762.846863	235.000000
762.883911	245.000000
762.921021	238.000000
762.958069	244.000000
762.995117	245.000000
763.032227	247.000000
763.069336	233.000000
763.106323	239.000000
763.143433	237.000000
763.180481	245.000000
763.217590	242.000000
763.254639	238.000000
763.291687	232.000000
763.328735	245.000000
763.365845	239.000000
763.402893	238.000000
763.439941	239.000000
763.477051	245.000000
763.514038	241.000000
763.551147	243.000000
763.588196	250.000000
763.625244	246.000000
763.662292	250.000000
763.699402	257.000000
763.736389	247.000000
763.773499	257.000000
763.810486	251.000000
763.847534	245.000000
763.884644	251.000000
763.921631	248.000000
763.958679	255.000000
763.995728	256.000000
764.032776	265.000000
764.069824	254.000000
764.106873	255.000000
764.143860	260.000000
764.180969	250.000000
764.218018	256.000000
764.255005	250.000000
764.292053	256.000000
764.329102	274.000000
764.366089	269.000000
764.403137	263.000000
764.440125	260.000000
764.477173	268.000000
764.514221	268.000000
764.551208	262.000000
764.588257	252.000000
764.625305	264.000000
764.662292	267.000000
764.699341	277.000000
764.736389	264.000000
764.773376	285.000000
764.810425	271.000000
764.847473	282.000000
764.884399	278.000000
764.921448	282.000000
764.958435	284.000000
764.995483	276.000000
765.032532	287.000000
765.069458	271.000000
765.106506	265.000000
765.143555	264.000000
765.180481	266.000000
765.217529	280.000000
765.254578	269.000000
765.291504	281.000000
765.328552	284.000000
765.365540	278.000000
765.402527	291.000000
765.439575	285.000000
765.476501	274.000000
765.513550	273.000000
765.550537	276.000000
765.587463	288.000000
765.624512	271.000000
765.661499	270.000000
765.698486	286.000000
765.735474	273.000000
765.772461	282.000000
765.809448	286.000000
765.846436	288.000000
765.883423	293.000000
765.920410	293.000000
765.957397	289.000000
765.994385	295.000000
766.031311	307.000000
766.068359	293.000000
766.105286	296.000000
766.142273	297.000000
766.179260	290.000000
766.216187	289.000000
766.253174	285.000000
766.290161	293.000000
766.327148	298.000000
766.364136	297.000000
766.401123	306.000000
766.438049	300.000000
766.475037	306.000000
766.512024	311.000000
766.548950	323.000000
766.585937	313.000000
766.622864	312.000000
766.659790	315.000000
766.696777	303.000000
766.733704	318.000000
766.770691	317.000000
766.807678	328.000000
766.844604	318.000000
766.881531	324.000000
766.918518	320.000000
766.955444	332.000000
766.992432	322.000000
767.029358	326.000000
767.066284	325.000000
767.103271	332.000000
767.140198	350.000000
767.177124	339.000000
767.214050	337.000000
767.251038	343.000000
767.287964	329.000000
767.324890	334.000000
767.361816	330.000000
767.398743	342.000000
767.435730	336.000000
767.472595	346.000000
767.509583	343.000000
767.546509	340.000000
767.583374	347.000000
767.620361	341.000000
767.657288	344.000000
767.694214	344.000000
767.731140	346.000000
767.768066	355.000000
767.804993	348.000000
767.841919	345.000000
767.878845	351.000000
767.915710	359.000000
767.952698	353.000000
767.989563	356.000000
768.026489	360.000000
768.063416	353.000000
768.100281	352.000000
768.137207	359.000000
768.174133	361.000000
768.211060	365.000000
768.247986	367.000000
768.284912	360.000000
768.321777	366.000000
768.358704	352.000000
768.395630	361.000000
768.432495	356.000000
768.469421	363.000000
768.506348	366.000000
768.543152	373.000000
768.580078	370.000000
768.616943	378.000000
768.653870	378.000000
768.690796	382.000000
768.727661	373.000000
768.764587	377.000000
768.801453	364.000000
768.838318	381.000000
768.875244	381.000000
768.912109	391.000000
768.948975	377.000000
768.985901	382.000000
769.022766	384.000000
769.059631	386.000000
769.096558	390.000000
769.133362	399.000000
769.170288	386.000000
769.207214	392.000000
769.244019	396.000000
769.280945	404.000000
769.317810	408.000000
769.354675	402.000000
769.391541	416.000000
769.428406	410.000000
769.465271	414.000000
769.502136	403.000000
769.539062	410.000000
769.575867	411.000000
769.612732	412.000000
769.649597	428.000000
769.686462	423.000000
769.723328	411.000000
769.760193	417.000000
769.797058	428.000000
769.833923	429.000000
769.870728	420.000000
769.907593	429.000000
769.944519	421.000000
769.981323	432.000000
770.018188	429.000000
770.055054	426.000000
770.091858	424.000000
770.128723	444.000000
770.165588	442.000000
770.202393	436.000000
770.239258	435.000000
770.276062	439.000000
770.312927	433.000000
770.349792	435.000000
770.386597	431.000000
770.423462	444.000000
770.460327	455.000000
770.497131	448.000000
770.533997	441.000000
770.570862	453.000000
770.607605	451.000000
770.644470	445.000000
770.681335	450.000000
770.718140	450.000000
770.754944	442.000000
770.791809	449.000000
770.828613	452.000000
770.865479	455.000000
770.902222	466.000000
770.939087	454.000000
770.975952	450.000000
771.012695	458.000000
771.049561	467.000000
771.086365	454.000000
771.123169	454.000000
771.159973	461.000000
771.196838	460.000000
771.233582	468.000000
771.270447	464.000000
771.307251	469.000000
771.344055	465.000000
771.380859	474.000000
771.417664	466.000000
771.454468	469.000000
771.491272	482.000000
771.528076	477.000000
771.564880	474.000000
771.601685	487.000000
771.638428	476.000000
771.675293	488.000000
771.712097	478.000000
771.748840	490.000000
771.785645	481.000000
771.822449	485.000000
771.859253	494.000000
771.896057	491.000000
771.932861	512.000000
771.969604	507.000000
772.006409	483.000000
772.043213	500.000000
772.079956	504.000000
772.116760	499.000000
772.153503	508.000000
772.190308	521.000000
772.227112	515.000000
772.263855	498.000000
772.300659	521.000000
772.337463	520.000000
772.374207	514.000000
772.411011	516.000000
772.447754	517.000000
772.484497	521.000000
772.521301	514.000000
772.558105	511.000000
772.594849	525.000000
772.631592	533.000000
772.668396	532.000000
772.705139	531.000000
772.741882	538.000000
772.778625	547.000000
772.815430	559.000000
772.852173	551.000000
772.888916	566.000000
772.925720	561.000000
772.962463	564.000000
772.999207	562.000000
773.035950	562.000000
773.072754	568.000000
773.109436	575.000000
773.146240	564.000000
773.182922	561.000000
773.219727	572.000000
773.256470	565.000000
773.293152	562.000000
773.329956	581.000000
773.366699	587.000000
773.403381	573.000000
773.440186	568.000000
773.476929	578.000000
773.513611	579.000000
773.550354	594.000000
773.587158	592.000000
773.623840	580.000000
773.660583	585.000000
773.697327	593.000000
773.734009	593.000000
773.770813	605.000000
773.807495	611.000000
773.844238	602.000000
773.880981	609.000000
773.917664	604.000000
773.954407	612.000000
773.991150	619.000000
774.027832	628.000000
774.064575	604.000000
774.101318	619.000000
774.138000	611.000000
774.174744	608.000000
774.211487	629.000000
774.248108	637.000000
774.284851	627.000000
774.321594	640.000000
774.358276	620.000000
774.395020	628.000000
774.431702	640.000000
774.468384	651.000000
774.505127	629.000000
774.541809	645.000000
774.578491	652.000000
774.615234	653.000000
774.651917	644.000000
774.688599	656.000000
774.725342	672.000000
774.762024	658.000000
774.798706	651.000000
774.835449	641.000000
774.872070	660.000000
774.908813	671.000000
774.945496	683.000000
774.982178	686.000000
775.018860	679.000000
775.055542	670.000000
775.092224	677.000000
775.128967	687.000000
775.165588	688.000000
775.202271	696.000000
775.239014	701.000000
775.275635	692.000000
775.312317	685.000000
775.349060	698.000000
775.385681	718.000000
775.422363	702.000000
775.459045	701.000000
775.495667	697.000000
775.532410	695.000000
775.569092	700.000000
775.605713	721.000000
775.642395	717.000000
775.679016	725.000000
775.715698	708.000000
775.752380	700.000000
775.789001	700.000000
775.825684	717.000000
775.862366	727.000000
775.898987	719.000000
775.935669	708.000000
775.972351	721.000000
776.008972	716.000000
776.045654	729.000000
776.082336	735.000000
776.118958	731.000000
776.155640	730.000000
776.192322	721.000000
776.228882	723.000000
776.265564	730.000000
776.302185	737.000000
776.338867	754.000000
776.375488	733.000000
776.412109	743.000000
776.448792	740.000000
776.485413	753.000000
776.522034	743.000000
776.558716	750.000000
776.595337	755.000000
776.631958	741.000000
776.668579	728.000000
776.705261	737.000000
776.741882	753.000000
776.778503	748.000000
776.815186	745.000000
776.851746	755.000000
776.888367	745.000000
776.924988	755.000000
776.961609	747.000000
776.998291	744.000000
777.034851	748.000000
777.071472	764.000000
777.108154	756.000000
777.144714	762.000000
777.181335	769.000000
777.218018	765.000000
777.254578	781.000000
777.291199	785.000000
777.327759	788.000000
777.364380	796.000000
777.401062	796.000000
777.437622	816.000000
777.474243	813.000000
777.510864	803.000000
777.547424	805.000000
777.584045	812.000000
777.620667	827.000000
777.657227	814.000000
777.693848	833.000000
777.730469	839.000000
777.767029	834.000000
777.803650	839.000000
777.840271	833.000000
777.876831	828.000000
777.913452	846.000000
777.950012	835.000000
777.986633	826.000000
778.023193	835.000000
778.059753	836.000000
778.096375	821.000000
778.132996	848.000000
778.169556	834.000000
778.206116	845.000000
778.242737	838.000000
778.279297	847.000000
778.315857	836.000000
778.352478	858.000000
778.389038	865.000000
778.425598	867.000000
778.462219	873.000000
778.498718	867.000000
778.535339	872.000000
778.571838	887.000000
778.608459	889.000000
778.645020	868.000000
778.681580	884.000000
778.718140	884.000000
778.754761	883.000000
778.791260	875.000000
778.827881	885.000000
778.864441	878.000000
778.900940	882.000000
778.937561	896.000000
778.974121	883.000000
779.010620	891.000000
779.047241	896.000000
779.083801	913.000000
779.120300	928.000000
779.156860	929.000000
779.193359	931.000000
779.229980	937.000000
779.266541	940.000000
779.303040	949.000000
779.339600	951.000000
779.376160	942.000000
779.412659	954.000000
779.449219	965.000000
779.485779	989.000000
779.522278	951.000000
779.558838	957.000000
779.595398	947.000000
779.631897	953.000000
779.668457	956.000000
779.705017	973.000000
779.741516	952.000000
779.778076	953.000000
779.814575	938.000000
779.851074	953.000000
779.887634	958.000000
779.924133	968.000000
779.960693	944.000000
779.997253	958.000000
780.033691	954.000000
780.070251	969.000000
780.106812	988.000000
780.143250	991.000000
780.179810	1000.000000
780.216370	1002.000000
780.252808	987.000000
780.289368	987.000000
780.325867	998.000000
780.362366	1011.000000
780.398865	1036.000000
780.435364	1031.000000
780.471863	1042.000000
780.508423	1014.000000
780.544861	1034.000000
780.581421	1047.000000
780.617920	1027.000000
780.654419	1041.000000
780.690918	1028.000000
780.727417	1021.000000
780.763916	1013.000000
780.800415	1036.000000
780.836914	1016.000000
780.873352	1037.000000
780.909912	1031.000000
780.946411	1034.000000
780.982849	1025.000000
781.019348	1041.000000
781.055786	1031.000000
781.092346	1040.000000
781.128845	1044.000000
781.165283	1030.000000
781.201782	1025.000000
781.238281	1029.000000
781.274719	1037.000000
781.311218	1045.000000
781.347717	1063.000000
781.384155	1051.000000
781.420654	1045.000000
781.457092	1046.000000
781.493591	1012.000000
781.530090	994.000000
781.566528	985.000000
781.602966	939.000000
781.639465	928.000000
781.675903	881.000000
781.712402	859.000000
781.748901	852.000000
781.785278	820.000000
781.821777	790.000000
781.858276	769.000000
781.894714	757.000000
781.931152	721.000000
781.967651	692.000000
782.004089	670.000000
782.040527	647.000000
782.076965	633.000000
782.113403	594.000000
782.149902	566.000000
782.186340	553.000000
782.222778	533.000000
782.259277	496.000000
782.295654	468.000000
782.332092	461.000000
782.368591	439.000000
782.404968	429.000000
782.441467	423.000000
782.477905	402.000000
782.514282	402.000000
782.550781	404.000000
782.587219	391.000000
782.623596	403.000000
782.660095	406.000000
782.696472	411.000000
782.732910	418.000000
782.769348	414.000000
782.805786	438.000000
782.842224	452.000000
782.878662	460.000000
782.915039	467.000000
782.951477	483.000000
782.987915	484.000000
783.024292	498.000000
783.060730	500.000000
783.097168	500.000000
783.133545	508.000000
783.169983	507.000000
783.206421	511.000000
783.242798	529.000000
783.279236	533.000000
783.315613	547.000000
783.352051	568.000000
783.388489	595.000000
783.424866	606.000000
783.461304	658.000000
783.497681	695.000000
783.534058	734.000000
783.570496	779.000000
783.606934	825.000000
783.643250	879.000000
783.679687	919.000000
783.716125	949.000000
783.752441	983.000000
783.788879	1042.000000
783.825317	1082.000000
783.861633	1115.000000
783.898071	1124.000000
783.934448	1161.000000
783.970825	1179.000000
784.007263	1199.000000
784.043579	1198.000000
784.080017	1207.000000
784.116394	1205.000000
784.152710	1207.000000
784.189148	1207.000000
784.225525	1208.000000
784.261902	1209.000000
784.298279	1212.000000
784.334656	1220.000000
784.371033	1189.000000
784.407410	1175.000000
784.443787	1165.000000
784.480164	1175.000000
784.516541	1180.000000
784.552856	1191.000000
784.589233	1174.000000
784.625610	1157.000000
784.661987	1186.000000
784.698364	1179.000000
784.734741	1200.000000
784.771057	1207.000000
784.807434	1220.000000
784.843811	1226.000000
784.880127	1196.000000
784.916504	1229.000000
784.952881	1242.000000
784.989197	1259.000000
785.025574	1285.000000
785.061951	1284.000000
785.098267	1307.000000
785.134644	1309.000000
785.170959	1329.000000
785.207275	1357.000000
785.243652	1381.000000
785.279968	1359.000000
785.316345	1335.000000
785.352722	1315.000000
785.388977	1310.000000
785.425354	1302.000000
785.461731	1306.000000
785.498047	1293.000000
785.534363	1247.000000
785.570679	1218.000000
785.606995	1185.000000
785.643372	1186.000000
785.679687	1185.000000
785.716003	1191.000000
785.752380	1171.000000
785.788635	1165.000000
785.825012	1156.000000
785.861328	1146.000000
785.897644	1157.000000
785.933960	1219.000000
785.970337	1239.000000
786.006592	1264.000000
786.042908	1277.000000
786.079285	1269.000000
786.115540	1315.000000
786.151855	1364.000000
786.188171	1397.000000
786.224487	1434.000000
786.260803	1429.000000
786.297119	1443.000000
786.333435	1438.000000
786.369751	1483.000000
786.406006	1477.000000
786.442322	1461.000000
786.478638	1443.000000
786.514954	1407.000000
786.551270	1362.000000
786.587585	1346.000000
786.623840	1317.000000
786.660156	1311.000000
786.696472	1274.000000
786.732727	1248.000000
786.769043	1203.000000
786.805298	1188.000000
786.841614	1191.000000
786.877930	1224.000000
786.914124	1220.000000
786.950439	1252.000000
786.986755	1269.000000
787.023010	1257.000000
787.059326	1257.000000
787.095642	1292.000000
787.131836	1347.000000
787.168152	1341.000000
787.204468	1351.000000
787.240723	1389.000000
787.276978	1385.000000
787.313293	1403.000000
787.349548	1437.000000
787.385803	1463.000000
787.422058	1464.000000
787.458313	1464.000000
787.494629	1432.000000
787.530823	1422.000000
787.567139	1413.000000
787.603455	1400.000000
787.639648	1407.000000
787.675903	1397.000000
787.712219	1372.000000
787.748413	1345.000000
787.784729	1339.000000
787.820984	1326.000000
787.857178	1318.000000
787.893494	1307.000000
787.929749	1304.000000
787.965942	1297.000000
788.002258	1305.000000
788.038452	1320.000000
788.074707	1323.000000
788.110962	1346.000000
788.147217	1323.000000
788.183472	1317.000000
788.219727	1311.000000
788.255920	1283.000000
788.292175	1307.000000
788.328430	1332.000000
788.364624	1329.000000
788.400879	1337.000000
788.437134	1338.000000
788.473328	1334.000000
788.509583	1321.000000
788.545837	1343.000000
788.582031	1346.000000
788.618286	1369.000000
788.654480	1372.000000
788.690735	1349.000000
788.726990	1376.000000
788.763184	1379.000000
788.799377	1399.000000
788.835632	1399.000000
788.871826	1418.000000
788.908081	1413.000000
788.944336	1415.000000
788.980469	1412.000000
789.016724	1412.000000
789.052979	1417.000000
789.089111	1396.000000
789.125366	1385.000000
789.161621	1370.000000
789.197754	1374.000000
789.234009	1325.000000
789.270142	1345.000000
789.306396	1335.000000
789.342590	1342.000000
789.378784	1312.000000
789.414978	1300.000000
789.451233	1301.000000
789.487366	1302.000000
789.523621	1303.000000
789.559814	1316.000000
789.595947	1323.000000
789.632202	1340.000000
789.668335	1330.000000
789.704529	1323.000000
789.740784	1353.000000
789.776917	1366.000000
789.813110	1379.000000
789.849304	1415.000000
789.885498	1411.000000
789.921692	1405.000000
789.957886	1381.000000
789.994019	1385.000000
790.030212	1404.000000
790.066406	1445.000000
790.102539	1423.000000
790.138733	1420.000000
790.174927	1396.000000
790.211060	1377.000000
790.247253	1397.000000
790.283386	1400.000000
790.319580	1401.000000
790.355774	1377.000000
790.391907	1279.000000
790.428101	1181.000000
790.464294	1040.000000
790.500427	894.000000
790.536621	739.000000
790.572754	614.000000
790.608887	551.000000
790.645081	584.000000
790.681274	747.000000
790.717346	954.000000
790.753540	1161.000000
790.789734	1295.000000
790.825867	1345.000000
790.862000	1337.000000
790.898132	1342.000000
790.934265	1326.000000
790.970459	1344.000000
791.006592	1359.000000
791.042725	1362.000000
791.078918	1342.000000
791.114990	1310.000000
791.151184	1279.000000
791.187317	1293.000000
791.223389	1302.000000
791.259583	1320.000000
791.295715	1310.000000
791.331848	1332.000000
791.367981	1311.000000
791.404114	1325.000000
791.440247	1331.000000
791.476379	1366.000000
791.512451	1378.000000
791.548584	1392.000000
791.584778	1401.000000
791.620850	1412.000000
791.656982	1390.000000
791.693115	1370.000000
791.729187	1389.000000
791.765381	1398.000000
791.801514	1429.000000
791.837585	1405.000000
791.873718	1410.000000
791.909851	1414.000000
791.945923	1438.000000
791.982056	1425.000000
792.018188	1438.000000
792.054260	1439.000000
792.090393	1438.000000
792.126465	1415.000000
792.162598	1414.000000
792.198669	1426.000000
792.234741	1443.000000
792.270874	1439.000000
792.307007	1414.000000
792.343079	1407.000000
792.379150	1401.000000
792.415283	1373.000000
792.451355	1402.000000
792.487488	1380.000000
792.523560	1392.000000
792.559631	1387.000000
792.595764	1354.000000
792.631836	1340.000000
792.667908	1361.000000
792.703979	1350.000000
792.740051	1373.000000
792.776184	1402.000000
792.812256	1381.000000
792.848328	1360.000000
792.884399	1347.000000
792.920471	1359.000000
792.956543	1380.000000
792.992615	1373.000000
793.028748	1380.000000
793.064758	1365.000000
793.100830	1374.000000
793.136963	1359.000000
793.172974	1388.000000
793.209045	1402.000000
793.245178	1418.000000
793.281189	1392.000000
793.317261	1383.000000
793.353271	1353.000000
793.389404	1371.000000
793.425476	1376.000000
793.461487	1381.000000
793.497559	1385.000000
793.533630	1379.000000
793.569641	1354.000000
793.605713	1349.000000
793.641785	1352.000000
793.677795	1353.000000
793.713867	1353.000000
793.749878	1375.000000
793.785950	1374.000000
793.822021	1383.000000
793.858032	1348.000000
793.894104	1362.000000
793.930176	1371.000000
793.966187	1395.000000
794.002258	1389.000000
794.038269	1404.000000
794.074280	1373.000000
794.110352	1366.000000
794.146423	1352.000000
794.182373	1371.000000
794.218445	1372.000000
794.254517	1398.000000
794.290466	1402.000000
794.326538	1352.000000
794.362549	1345.000000
794.398560	1344.000000
794.434631	1323.000000
794.470581	1304.000000
794.506653	1302.000000
794.542664	1276.000000
794.578674	1280.000000
794.614685	1265.000000
794.650757	1263.000000
794.686707	1283.000000
794.722778	1297.000000
794.758789	1300.000000
794.794739	1290.000000
794.830811	1306.000000
794.866821	1306.000000
794.902771	1304.000000
794.938843	1303.000000
794.974792	1320.000000
795.010803	1331.000000
795.046814	1336.000000
795.082825	1309.000000
795.118835	1317.000000
795.154846	1322.000000
795.190796	1315.000000
795.226807	1307.000000
795.262817	1302.000000
795.298767	1285.000000
795.334778	1276.000000
795.370850	1276.000000
795.406799	1271.000000
795.442810	1267.000000
795.478821	1268.000000
795.514709	1262.000000
795.550720	1253.000000
795.586670	1198.000000
795.622681	1215.000000
795.658691	1223.000000
795.694641	1234.000000
795.730652	1211.000000
795.766663	1223.000000
795.802551	1223.000000
795.838562	1207.000000
795.874573	1198.000000
795.910522	1220.000000
795.946472	1200.000000
795.982483	1217.000000
796.018433	1211.000000
796.054382	1203.000000
796.090393	1183.000000
796.126282	1208.000000
796.162292	1207.000000
796.198242	1245.000000
796.234192	1244.000000
796.270203	1235.000000
796.306091	1230.000000
796.342041	1239.000000
796.378052	1227.000000
796.413940	1256.000000
796.449951	1244.000000
796.485901	1245.000000
796.521790	1221.000000
796.557800	1215.000000
796.593689	1199.000000
796.629639	1229.000000
796.665649	1239.000000
796.701599	1249.000000
796.737488	1240.000000
796.773437	1223.000000
796.809387	1216.000000
796.845337	1233.000000
796.881287	1234.000000
796.917175	1241.000000
796.953125	1248.000000
796.989075	1250.000000
797.024963	1228.000000
797.060913	1225.000000
797.096863	1227.000000
797.132751	1247.000000
797.168701	1231.000000
797.204590	1215.000000
797.240540	1188.000000
797.276489	1179.000000
797.312439	1164.000000
797.348328	1177.000000
797.384277	1207.000000
797.420166	1208.000000
797.456055	1199.000000
797.492004	1170.000000
797.527893	1157.000000
797.563843	1179.000000
797.599731	1162.000000
797.635620	1176.000000
797.671570	1199.000000
797.707520	1206.000000
797.743347	1174.000000
797.779297	1178.000000
797.815125	1178.000000
797.851074	1195.000000
797.887024	1204.000000
797.922913	1203.000000
797.958801	1209.000000
797.994690	1187.000000
798.030579	1183.000000
798.066467	1174.000000
798.102356	1186.000000
798.138245	1205.000000
798.174133	1180.000000
798.210083	1180.000000
798.245911	1183.000000
798.281799	1158.000000
798.317749	1156.000000
798.353577	1168.000000
798.389465	1179.000000
798.425293	1174.000000
798.461243	1168.000000
798.497131	1146.000000
798.532959	1151.000000
798.568848	1169.000000
798.604736	1172.000000
798.640564	1173.000000
798.676453	1161.000000
798.712402	1141.000000
798.748230	1127.000000
798.784119	1133.000000
798.820007	1151.000000
798.855835	1154.000000
798.891724	1181.000000
798.927551	1156.000000
798.963379	1146.000000
798.999268	1142.000000
799.035095	1134.000000
799.070984	1158.000000
799.106873	1161.000000
799.142700	1156.000000
799.178528	1132.000000
799.214417	1101.000000
799.250244	1134.000000
799.286133	1137.000000
799.321960	1146.000000
799.357788	1143.000000
799.393677	1141.000000
799.429504	1139.000000
799.465332	1129.000000
799.501221	1129.000000
799.537048	1133.000000
799.572876	1147.000000
799.608704	1139.000000
799.644531	1132.000000
799.680359	1113.000000
799.716248	1127.000000
799.752014	1141.000000
799.787903	1140.000000
799.823730	1157.000000
799.859558	1145.000000
799.895386	1133.000000
799.931213	1089.000000
799.967041	1087.000000
800.002869	1095.000000
800.038696	1109.000000
800.074463	1098.000000
800.110352	1102.000000
800.146179	1072.000000
800.181946	1080.000000
800.217773	1091.000000
800.253540	1082.000000
800.289429	1100.000000
800.325256	1091.000000
800.361023	1064.000000
800.396851	1069.000000
800.432678	1054.000000
800.468445	1051.000000
800.504272	1070.000000
800.540100	1067.000000
800.575867	1071.000000
800.611694	1068.000000
800.647461	1032.000000
800.683289	1021.000000
800.719116	1035.000000
800.754883	1024.000000
800.790649	1019.000000
800.826477	1020.000000
800.862244	1039.000000
800.898071	998.000000
800.933838	1005.000000
800.969604	999.000000
801.005432	1007.000000
801.041199	1026.000000
801.076965	1011.000000
801.112793	985.000000
801.148560	976.000000
801.184326	968.000000
801.220154	986.000000
801.255859	972.000000
801.291687	979.000000
801.327454	973.000000
801.363281	959.000000
801.398987	952.000000
801.434814	944.000000
801.470520	955.000000
801.506287	935.000000
801.542114	938.000000
801.577820	947.000000
801.613647	930.000000
801.649414	919.000000
801.685120	931.000000
801.720886	947.000000
801.756714	932.000000
801.792419	932.000000
801.828186	926.000000
801.863892	916.000000
801.899719	913.000000
801.935486	920.000000
801.971252	927.000000
802.006958	919.000000
802.042725	918.000000
802.078430	919.000000
802.114197	911.000000
802.149963	917.000000
802.185669	908.000000
802.221436	901.000000
802.257202	919.000000
802.292908	906.000000
802.328674	913.000000
802.364441	904.000000
802.400146	889.000000
802.435913	893.000000
802.471558	899.000000
802.507324	893.000000
802.543091	887.000000
802.578796	902.000000
802.614502	883.000000
802.650269	903.000000
802.685974	903.000000
802.721741	900.000000
802.757446	918.000000
802.793152	891.000000
802.828918	885.000000
802.864624	875.000000
802.900330	889.000000
802.936035	884.000000
802.971802	889.000000
803.007446	889.000000
803.043213	879.000000
803.078857	881.000000
803.114624	856.000000
803.150330	859.000000
803.185974	852.000000
803.221741	858.000000
803.257446	861.000000
803.293152	861.000000
803.328857	852.000000
803.364563	846.000000
803.400208	833.000000
803.435974	866.000000
803.471680	839.000000
803.507324	838.000000
803.543030	837.000000
803.578735	826.000000
803.614441	814.000000
803.650146	839.000000
803.685791	817.000000
803.721497	839.000000
803.757202	818.000000
803.792847	810.000000
803.828552	805.000000
803.864258	812.000000
803.899902	800.000000
803.935608	794.000000
803.971313	785.000000
804.006958	781.000000
804.042664	768.000000
804.078308	794.000000
804.113953	784.000000
804.149658	783.000000
804.185364	793.000000
804.221008	798.000000
804.256714	780.000000
804.292297	773.000000
804.328003	761.000000
804.363708	763.000000
804.399292	765.000000
804.434998	757.000000
804.470703	746.000000
804.506287	757.000000
804.541992	741.000000
804.577637	741.000000
804.613281	741.000000
804.648926	735.000000
804.684570	754.000000
804.720215	739.000000
804.755920	732.000000
804.791565	725.000000
804.827209	751.000000
804.862854	733.000000
804.898437	737.000000
804.934143	741.000000
804.969788	742.000000
805.005371	742.000000
805.041077	732.000000
805.076721	733.000000
805.112305	732.000000
805.147949	743.000000
805.183655	724.000000
805.219238	733.000000
805.254883	722.000000
805.290466	719.000000
805.326111	717.000000
805.361755	721.000000
805.397400	736.000000
805.432983	738.000000
805.468628	730.000000
805.504211	720.000000
805.539856	715.000000
805.575500	732.000000
805.611084	723.000000
805.646729	710.000000
805.682373	715.000000
805.717957	703.000000
805.753601	719.000000
805.789246	696.000000
805.824768	714.000000
805.860413	723.000000
805.895996	708.000000
805.931641	700.000000
805.967224	704.000000
806.002869	693.000000
806.038452	702.000000
806.074036	698.000000
806.109619	695.000000
806.145264	689.000000
806.180847	702.000000
806.216431	692.000000
806.252014	696.000000
806.287659	685.000000
806.323181	683.000000
806.358826	681.000000
806.394409	675.000000
806.429993	667.000000
806.465576	676.000000
806.501160	661.000000
806.536743	662.000000
806.572327	663.000000
806.607910	675.000000
806.643494	675.000000
806.679077	656.000000
806.714661	655.000000
806.750244	659.000000
806.785828	648.000000
806.821350	648.000000
806.856934	645.000000
806.892517	639.000000
806.928101	636.000000
806.963684	641.000000
806.999268	645.000000
807.034790	632.000000
807.070374	630.000000
807.105896	622.000000
807.141479	623.000000
807.177063	629.000000
807.212585	616.000000
807.248169	604.000000
807.283752	619.000000
807.319275	627.000000
807.354858	627.000000
807.390381	613.000000
807.425903	620.000000
807.461487	613.000000
807.497070	606.000000
807.532593	600.000000
807.568115	597.000000
807.603699	599.000000
807.639221	589.000000
807.674744	588.000000
807.710266	601.000000
807.745850	590.000000
807.781372	589.000000
807.816895	583.000000
807.852417	591.000000
807.888000	588.000000
807.923523	580.000000
807.959045	581.000000
807.994629	574.000000
808.030090	577.000000
808.065613	577.000000
808.101135	584.000000
808.136658	585.000000
808.172241	572.000000
808.207764	574.000000
808.243225	572.000000
808.278809	570.000000
808.314270	577.000000
808.349792	565.000000
808.385315	553.000000
808.420837	569.000000
808.456360	563.000000
808.491882	564.000000
808.527344	565.000000
808.562866	567.000000
808.598389	554.000000
808.633850	555.000000
808.669434	549.000000
808.704895	549.000000
808.740417	566.000000
808.775940	556.000000
808.811462	547.000000
808.846924	546.000000
808.882385	531.000000
808.917847	533.000000
808.953369	531.000000
808.988892	537.000000
809.024353	535.000000
809.059875	541.000000
809.095398	542.000000
809.130798	520.000000
809.166321	522.000000
809.201843	525.000000
809.237305	523.000000
809.272766	521.000000
809.308228	519.000000
809.343750	517.000000
809.379211	513.000000
809.414734	513.000000
809.450134	519.000000
809.485657	503.000000
809.521118	518.000000
809.556580	505.000000
809.592102	515.000000
809.627502	501.000000
809.663025	499.000000
809.698486	499.000000
809.733887	495.000000
809.769409	494.000000
809.804871	490.000000
809.840271	489.000000
809.875793	494.000000
809.911194	492.000000
809.946655	480.000000
809.982178	481.000000
810.017639	483.000000
810.053040	473.000000
810.088501	480.000000
810.123901	479.000000
810.159424	476.000000
810.194885	461.000000
810.230286	480.000000
810.265747	470.000000
810.301208	464.000000
810.336609	467.000000
810.372070	459.000000
810.407532	455.000000
810.442932	466.000000
810.478394	466.000000
810.513794	467.000000
810.549255	470.000000
810.584717	459.000000
810.620117	454.000000
810.655518	462.000000
810.690979	462.000000
810.726379	463.000000
810.761841	449.000000
810.797302	445.000000
810.832642	446.000000
810.868103	456.000000
810.903564	447.000000
810.938904	449.000000
810.974365	446.000000
811.009827	449.000000
811.045166	441.000000
811.080627	431.000000
811.115967	439.000000
811.151428	447.000000
811.186829	436.000000
811.222229	434.000000
811.257629	430.000000
811.293091	430.000000
811.328430	446.000000
811.363892	435.000000
811.399292	431.000000
811.434631	430.000000
811.470093	428.000000
811.505493	421.000000
811.540833	420.000000
811.576294	428.000000
811.611694	427.000000
811.647034	418.000000
811.682434	423.000000
811.717773	426.000000
811.753235	429.000000
811.788635	426.000000
811.823975	424.000000
811.859375	433.000000
811.894775	417.000000
811.930115	420.000000
811.965515	417.000000
812.000916	419.000000
812.036255	413.000000
812.071655	434.000000
812.106995	411.000000
812.142395	405.000000
812.177795	415.000000
812.213196	412.000000
812.248474	417.000000
812.283875	412.000000
812.319214	404.000000
812.354614	409.000000
812.390015	406.000000
812.425293	399.000000
812.460693	406.000000
812.496094	406.000000
812.531433	394.000000
812.566772	395.000000
812.602173	398.000000
812.637451	405.000000
812.672852	395.000000
812.708191	395.000000
812.743530	392.000000
812.778931	386.000000
812.814270	389.000000
812.849609	395.000000
812.884949	380.000000
812.920227	381.000000
812.955627	395.000000
812.990967	391.000000
813.026306	379.000000
813.061646	368.000000
813.096985	367.000000
813.132324	364.000000
813.167664	363.000000
813.203003	369.000000
813.238281	356.000000
813.273682	362.000000
813.308960	357.000000
813.344299	358.000000
813.379639	365.000000
813.414978	359.000000
813.450256	358.000000
813.485596	361.000000
813.520874	353.000000
813.556213	356.000000
813.591614	352.000000
813.626831	350.000000
813.662170	352.000000
813.697510	366.000000
813.732788	347.000000
813.768127	353.000000
813.803467	348.000000
813.838745	349.000000
813.874084	348.000000
813.909363	350.000000
813.944641	356.000000
813.979980	346.000000
814.015320	337.000000
814.050598	344.000000
814.085876	352.000000
814.121155	348.000000
814.156494	342.000000
814.191772	342.000000
814.227051	330.000000
814.262390	341.000000
814.297668	346.000000
814.332947	349.000000
814.368225	335.000000
814.403564	338.000000
814.438782	328.000000
814.474121	341.000000
814.509338	328.000000
814.544617	341.000000
814.579956	337.000000
814.615173	339.000000
814.650513	335.000000
814.685791	328.000000
814.721008	337.000000
814.756348	330.000000
814.791626	324.000000
814.826843	323.000000
814.862122	323.000000
814.897400	316.000000
814.932678	323.000000
814.967957	317.000000
815.003235	322.000000
815.038452	315.000000
815.073730	317.000000
815.108948	325.000000
815.144226	321.000000
815.179504	318.000000
815.214722	310.000000
815.250000	310.000000
815.285278	321.000000
815.320496	312.000000
815.355774	317.000000
815.391052	317.000000
815.426270	313.000000
815.461487	307.000000
815.496765	302.000000
815.531982	298.000000
815.567261	304.000000
815.602539	307.000000
815.637695	303.000000
815.672974	306.000000
815.708191	303.000000
815.743408	307.000000
815.778687	303.000000
815.813904	310.000000
815.849121	295.000000
815.884399	296.000000
815.919556	300.000000
815.954834	295.000000
815.990051	300.000000
816.025269	302.000000
816.060486	296.000000
816.095703	293.000000
816.130920	302.000000
816.166199	296.000000
816.201416	301.000000
816.236572	299.000000
816.271851	289.000000
816.307007	299.000000
816.342224	287.000000
816.377441	289.000000
816.412659	284.000000
816.447876	295.000000
816.483093	285.000000
816.518250	291.000000
816.553467	279.000000
816.588745	291.000000
816.623901	276.000000
816.659119	272.000000
816.694275	281.000000
816.729492	278.000000
816.764709	308.000000
816.799927	281.000000
816.835083	280.000000
816.870300	273.000000
816.905457	281.000000
816.940674	282.000000
816.975830	275.000000
817.010986	275.000000
817.046204	272.000000
817.081421	270.000000
817.116577	265.000000
817.151733	276.000000
817.186951	275.000000
817.222107	270.000000
817.257324	276.000000
817.292419	276.000000
817.327637	263.000000
817.362854	267.000000
817.398010	267.000000
817.433167	268.000000
817.468323	269.000000
817.503479	268.000000
817.538635	275.000000
817.573853	273.000000
817.608948	270.000000
817.644165	263.000000
817.679321	260.000000
817.714478	256.000000
817.749634	267.000000
817.784790	280.000000
817.819946	266.000000
817.855103	252.000000
817.890198	261.000000
817.925415	255.000000
817.960571	267.000000
817.995667	266.000000
818.030823	258.000000
818.066040	258.000000
818.101135	261.000000
818.136292	259.000000
818.171448	255.000000
818.206543	264.000000
818.241699	266.000000
818.276855	262.000000
818.311951	260.000000
818.347107	254.000000
818.382263	261.000000
818.417358	263.000000
818.452515	264.000000
818.487610	261.000000
818.522766	258.000000
818.557922	263.000000
818.593018	267.000000
818.628113	251.000000
818.663269	253.000000
818.698364	257.000000
818.733521	253.000000
818.768677	256.000000
818.803711	252.000000
818.838867	245.000000
818.874023	254.000000
818.909058	242.000000
818.944214	253.000000
818.979370	252.000000
819.014404	247.000000
819.049561	246.000000
819.084595	252.000000
819.119751	244.000000
819.154846	247.000000
819.189941	241.000000
819.225037	239.000000
819.260193	241.000000
819.295227	234.000000
819.330322	237.000000
819.365479	237.000000
819.400513	262.000000
819.435608	231.000000
819.470764	230.000000
819.505798	238.000000
819.540894	239.000000
819.575989	238.000000
819.611084	243.000000
819.646179	247.000000
819.681213	242.000000
819.716309	232.000000
819.751404	237.000000
819.786438	243.000000
819.821533	233.000000
819.856628	236.000000
819.891663	240.000000
819.926758	246.000000
819.961853	238.000000
819.996887	231.000000
820.031982	238.000000
820.067017	236.000000
820.102112	264.000000
820.137207	230.000000
820.172302	244.000000
820.207275	228.000000
820.242371	227.000000
820.277405	230.000000
820.312500	235.000000
820.347534	235.000000
820.382568	238.000000
820.417664	227.000000
820.452759	230.000000
820.487732	228.000000
820.522827	233.000000
820.557861	219.000000
820.592896	225.000000
820.627930	225.000000
820.662964	222.000000
820.698059	225.000000
820.733093	227.000000
820.768127	230.000000
820.803162	229.000000
820.838196	218.000000
820.873230	227.000000
820.908264	224.000000
820.943298	226.000000
820.978333	229.000000
821.013367	225.000000
821.048401	232.000000
821.083435	224.000000
821.118469	221.000000
821.153503	230.000000
821.188477	222.000000
821.223511	219.000000
821.258484	220.000000
821.293579	226.000000
821.328613	213.000000
821.363647	220.000000
821.398621	215.000000
821.433655	215.000000
821.468628	233.000000
821.503662	216.000000
821.538696	226.000000
821.573669	216.000000
821.608704	225.000000
821.643677	221.000000
821.678650	222.000000
821.713684	227.000000
821.748718	220.000000
821.783691	221.000000
821.818726	219.000000
821.853638	223.000000
821.888672	219.000000
821.923706	215.000000
821.958618	213.000000
821.993652	210.000000
822.028687	220.000000
822.063599	225.000000
822.098633	219.000000
822.133667	210.000000
822.168579	221.000000
822.203613	216.000000
822.238586	213.000000
822.273560	218.000000
822.308533	213.000000
822.343567	209.000000
822.378479	214.000000
822.413452	213.000000
822.448425	205.000000
822.483398	222.000000
822.518372	214.000000
822.553345	206.000000
822.588318	220.000000
822.623291	214.000000
822.658203	208.000000
822.693237	212.000000
822.728210	207.000000
822.763123	208.000000
822.798096	207.000000
822.833069	209.000000
822.867981	205.000000
822.902954	206.000000
822.937927	212.000000
822.972900	215.000000
823.007874	202.000000
823.042725	212.000000
823.077698	217.000000
823.112671	207.000000
823.147583	208.000000
823.182556	204.000000
823.217529	210.000000
823.252441	209.000000
823.287415	219.000000
823.322388	208.000000
823.357239	206.000000
823.392212	215.000000
823.427185	211.000000
823.462097	205.000000
823.497009	206.000000
823.531982	207.000000
823.566895	206.000000
823.601807	200.000000
823.636719	203.000000
823.671631	207.000000
823.706604	204.000000
823.741455	211.000000
823.776428	197.000000
823.811340	212.000000
823.846252	210.000000
823.881165	211.000000
823.916138	202.000000
823.950989	214.000000
823.985901	204.000000
824.020813	206.000000
824.055725	205.000000
824.090637	201.000000
824.125610	202.000000
824.160461	202.000000
824.195374	201.000000
824.230225	209.000000
824.265198	191.000000
824.300110	198.000000
824.334961	209.000000
824.369873	197.000000
824.404785	202.000000
824.439636	208.000000
824.474548	195.000000
824.509460	193.000000
824.544312	200.000000
824.579224	207.000000
824.614075	204.000000
824.648987	197.000000
824.683899	197.000000
824.718811	200.000000
824.753662	200.000000
824.788574	205.000000
824.823364	202.000000
824.858276	195.000000
824.893188	203.000000
824.928040	208.000000
824.962952	197.000000
824.997803	206.000000
825.032654	201.000000
825.067566	202.000000
825.102417	193.000000
825.137268	199.000000
825.172119	196.000000
825.206970	197.000000
825.241882	197.000000
825.276733	194.000000
825.311646	197.000000
825.346436	193.000000
825.381348	193.000000
825.416138	199.000000
825.450989	192.000000
825.485901	185.000000
825.520691	190.000000
825.555542	189.000000
825.590454	197.000000
825.625244	190.000000
825.660095	202.000000
825.695007	200.000000
825.729797	196.000000
825.764648	189.000000
825.799438	195.000000
825.834290	195.000000
825.869202	186.000000
825.903992	193.000000
825.938843	192.000000
825.973694	189.000000
826.008484	207.000000
826.043335	189.000000
826.078186	187.000000
826.112976	195.000000
826.147827	197.000000
826.182678	199.000000
826.217468	185.000000
826.252319	203.000000
826.287109	190.000000
826.321899	194.000000
826.356750	192.000000
826.391541	190.000000
826.426392	196.000000
826.461182	192.000000
826.495972	190.000000
826.530823	181.000000
826.565613	192.000000
826.600403	192.000000
826.635254	194.000000
826.670044	184.000000
826.704834	186.000000
826.739685	185.000000
826.774475	196.000000
826.809265	192.000000
826.844055	188.000000
826.878906	198.000000
826.913635	193.000000
826.948425	194.000000
826.983215	193.000000
827.018005	195.000000
827.052856	191.000000
827.087585	192.000000
827.122375	185.000000
827.157227	192.000000
827.191956	205.000000
827.226746	180.000000
827.261536	193.000000
827.296265	186.000000
827.331116	187.000000
827.365906	191.000000
827.400635	182.000000
827.435425	186.000000
827.470215	193.000000
827.504944	191.000000
827.539734	190.000000
827.574463	186.000000
827.609253	193.000000
827.644043	194.000000
827.678772	191.000000
827.713562	186.000000
827.748352	185.000000
827.783081	185.000000
827.817871	187.000000
827.852600	184.000000
827.887329	188.000000
827.922119	179.000000
827.956848	194.000000
827.991638	201.000000
828.026367	186.000000
828.061157	189.000000
828.095886	184.000000
828.130615	202.000000
828.165344	178.000000
828.200073	189.000000
828.234863	187.000000
828.269592	188.000000
828.304321	189.000000
828.339111	187.000000
828.373779	184.000000
828.408569	193.000000
828.443298	191.000000
828.477966	187.000000
828.512756	187.000000
828.547424	185.000000
828.582214	185.000000
828.616943	184.000000
828.651672	184.000000
828.686340	194.000000
828.721130	181.000000
828.755798	189.000000
828.790527	188.000000
828.825256	188.000000
828.859924	187.000000
828.894714	193.000000
828.929443	198.000000
828.964111	182.000000
828.998840	191.000000
829.033569	184.000000
829.068237	185.000000
829.102966	180.000000
829.137634	190.000000
829.172363	188.000000
829.207092	186.000000
829.241821	182.000000
829.276489	182.000000
829.311157	186.000000
829.345825	186.000000
829.380554	191.000000
829.415283	180.000000
829.449951	174.000000
829.484619	191.000000
829.519348	193.000000
829.554016	186.000000
829.588745	183.000000
829.623413	180.000000
829.658081	195.000000
829.692749	184.000000
829.727417	187.000000
829.762146	188.000000
829.796814	181.000000
829.831482	183.000000
829.866150	185.000000
829.900879	184.000000
829.935486	188.000000
829.970154	185.000000
830.004883	195.000000
830.039490	185.000000
830.074219	181.000000
830.108887	186.000000
830.143494	185.000000
830.178223	186.000000
830.212891	183.000000
830.247498	188.000000
830.282166	187.000000
830.316772	192.000000
830.351501	185.000000
830.386169	184.000000
830.420776	183.000000
830.455444	186.000000
830.490112	179.000000
830.524719	177.000000
830.559387	189.000000
830.594055	189.000000
830.628662	187.000000
830.663330	185.000000
830.697998	192.000000
830.732605	184.000000
830.767273	189.000000
830.801941	184.000000
830.836487	197.000000
830.871155	187.000000
830.905762	185.000000
830.940430	178.000000
830.975098	183.000000
831.009644	184.000000
831.044312	198.000000
831.078979	185.000000
831.113525	178.000000
831.148193	183.000000
831.182861	185.000000
831.217407	185.000000
831.252075	202.000000
831.286621	180.000000
831.321289	183.000000
831.355896	184.000000
831.390564	194.000000
831.425110	185.000000
831.459778	192.000000
831.494324	194.000000
831.528931	192.000000
831.563599	187.000000
831.598145	178.000000
831.632751	181.000000
831.667419	186.000000
831.701965	184.000000
831.736572	189.000000
831.771179	177.000000
831.805786	183.000000
831.840393	187.000000
831.874939	176.000000
831.909546	189.000000
831.944153	177.000000
831.978760	184.000000
832.013306	179.000000
832.047913	187.000000
832.082458	194.000000
832.117065	179.000000
832.151672	192.000000
832.186218	185.000000
832.220825	186.000000
832.255432	178.000000
832.289978	184.000000
832.324585	189.000000
832.359192	188.000000
832.393677	185.000000
832.428284	186.000000
832.462830	185.000000
832.497437	185.000000
832.531982	192.000000
832.566589	184.000000
832.601135	190.000000
832.635681	177.000000
832.670227	184.000000
832.704773	189.000000
832.739380	185.000000
832.773926	184.000000
832.808472	186.000000
832.843079	183.000000
832.877563	190.000000
832.912170	180.000000
832.946716	177.000000
832.981201	186.000000
833.015808	190.000000
833.050293	181.000000
833.084839	179.000000
833.119446	176.000000
833.153992	188.000000
833.188477	181.000000
833.223022	183.000000
833.257568	179.000000
833.292114	189.000000
833.326660	192.000000
833.361145	179.000000
833.395691	173.000000
833.430237	182.000000
833.464783	189.000000
833.499329	182.000000
833.533875	180.000000
833.568359	189.000000
833.602905	188.000000
833.637390	189.000000
833.671875	184.000000
833.706421	183.000000
833.740906	182.000000
833.775452	176.000000
833.809998	181.000000
833.844482	196.000000
833.879028	186.000000
833.913513	182.000000
833.947998	184.000000
833.982544	183.000000
834.017090	181.000000
834.051514	173.000000
834.086060	188.000000
834.120544	182.000000
834.155029	192.000000
834.189575	182.000000
834.223999	184.000000
834.258545	186.000000
834.293030	190.000000
834.327515	182.000000
834.362000	181.000000
834.396545	187.000000
834.430969	182.000000
834.465454	188.000000
834.500000	179.000000
834.534424	186.000000
834.568970	177.000000
834.603455	172.000000
834.637878	183.000000
834.672363	183.000000
834.706909	185.000000
834.741333	184.000000
834.775818	179.000000
834.810242	180.000000
834.844727	183.000000
834.879211	181.000000
834.913635	185.000000
834.948181	180.000000
834.982666	186.000000
835.017090	182.000000
835.051575	183.000000
835.086060	179.000000
835.120483	189.000000
835.154907	185.000000
835.189331	188.000000
835.223816	185.000000
835.258301	176.000000
835.292786	176.000000
835.327209	192.000000
835.361694	179.000000
835.396057	179.000000
835.430542	188.000000
835.465027	182.000000
835.499390	180.000000
835.533875	210.000000
835.568359	181.000000
835.602722	179.000000
835.637207	187.000000
835.671692	179.000000
835.706055	205.000000
835.740540	190.000000
835.774902	185.000000
835.809387	188.000000
835.843811	177.000000
835.878235	186.000000
835.912659	175.000000
835.947083	183.000000
835.981506	184.000000
836.015930	177.000000
836.050354	192.000000
836.084778	190.000000
836.119202	190.000000
836.153625	199.000000
836.187988	179.000000
836.222473	176.000000
836.256897	190.000000
836.291260	181.000000
836.325684	187.000000
836.360046	183.000000
836.394470	182.000000
836.428894	188.000000
836.463318	182.000000
836.497681	184.000000
836.532104	194.000000
836.566467	184.000000
836.600891	181.000000
836.635315	183.000000
836.669678	186.000000
836.704102	189.000000
836.738525	183.000000
836.772888	176.000000
836.807251	183.000000
836.841675	184.000000
836.876038	179.000000
836.910461	177.000000
836.944763	188.000000
836.979187	178.000000
837.013611	186.000000
837.047974	177.000000
837.082336	196.000000
837.116699	187.000000
837.151062	183.000000
837.185486	178.000000
837.219849	185.000000
837.254211	192.000000
837.288574	188.000000
837.322937	175.000000
837.357300	173.000000
837.391663	197.000000
837.426086	190.000000
837.460388	186.000000
837.494751	188.000000
837.529114	180.000000
837.563477	191.000000
837.597839	188.000000
837.632141	184.000000
837.666565	185.000000
837.700928	190.000000
837.735229	186.000000
837.769592	190.000000
837.803955	189.000000
837.838257	183.000000
837.872620	180.000000
837.906982	189.000000
837.941284	187.000000
837.975647	185.000000
838.010010	192.000000
838.044312	179.000000
838.078674	187.000000
838.112976	185.000000
838.147339	190.000000
838.181702	182.000000
838.216003	195.000000
838.250366	183.000000
838.284668	189.000000
838.318970	178.000000
838.353333	185.000000
838.387634	186.000000
838.421936	188.000000
838.456299	181.000000
838.490601	193.000000
838.524902	189.000000
838.559265	186.000000
838.593567	184.000000
838.627869	179.000000
838.662170	182.000000
838.696472	173.000000
838.730774	179.000000
838.765137	186.000000
838.799377	168.000000
838.833740	187.000000
838.868042	191.000000
838.902283	177.000000
838.936646	189.000000
838.970947	183.000000
839.005188	191.000000
839.039551	183.000000
839.073792	193.000000
839.108093	184.000000
839.142395	195.000000
839.176697	179.000000
839.210937	186.000000
839.245300	197.000000
839.279541	179.000000
839.313843	185.000000
839.348145	193.000000
839.382385	189.000000
839.416687	191.000000
839.450989	188.000000
839.485229	186.000000
839.519531	182.000000
839.553833	195.000000
839.588013	185.000000
839.622314	189.000000
839.656555	187.000000
839.690857	186.000000
839.725159	182.000000
839.759460	184.000000
839.793640	179.000000
839.827942	187.000000
839.862183	179.000000
839.896423	184.000000
839.930725	194.000000
839.964966	193.000000
839.999207	190.000000
840.033508	193.000000
840.067688	179.000000
840.101990	192.000000
840.136230	181.000000
840.170471	193.000000
840.204712	179.000000
840.238953	184.000000
840.273193	187.000000
840.307434	190.000000
840.341736	177.000000
840.375916	183.000000
840.410217	180.000000
840.444397	195.000000
840.478638	189.000000
840.512878	190.000000
840.547119	183.000000
840.581360	185.000000
840.615601	190.000000
840.649780	198.000000
840.684021	183.000000
840.718262	191.000000
840.752441	187.000000
840.786682	188.000000
840.820862	185.000000
840.855103	194.000000
840.889343	186.000000
840.923584	188.000000
840.957764	188.000000
840.992004	196.000000
841.026184	196.000000
841.060425	187.000000
841.094666	183.000000
841.128845	188.000000
841.163025	187.000000
841.197266	188.000000
841.231445	185.000000
841.265686	189.000000
841.299866	184.000000
841.334045	190.000000
841.368286	183.000000
841.402405	193.000000
841.436646	191.000000
841.470825	185.000000
841.505005	187.000000
841.539185	178.000000
841.573425	184.000000
841.607544	185.000000
841.641785	186.000000
841.675964	180.000000
841.710144	187.000000
841.744324	177.000000
841.778503	188.000000
841.812683	182.000000
841.846863	192.000000
841.881042	190.000000
841.915222	176.000000
841.949402	197.000000
841.983521	180.000000
842.017700	181.000000
842.051880	185.000000
842.086060	182.000000
842.120239	187.000000
842.154419	177.000000
842.188538	184.000000
842.222717	181.000000
842.256897	195.000000
842.291016	183.000000
842.325195	187.000000
842.359375	187.000000
842.393494	192.000000
842.427673	188.000000
842.461853	187.000000
842.495911	193.000000
842.530090	187.000000
842.564209	182.000000
842.598389	191.000000
842.632568	191.000000
842.666626	187.000000
842.700806	183.000000
842.734985	182.000000
842.769043	187.000000
842.803223	185.000000
842.837402	185.000000
842.871460	181.000000
842.905640	198.000000
842.939697	183.000000
842.973877	189.000000
843.007996	193.000000
843.042175	202.000000
843.076233	179.000000
843.110413	188.000000
843.144470	195.000000
843.178589	187.000000
843.212769	182.000000
843.246826	190.000000
843.280945	179.000000
843.315125	186.000000
843.349182	181.000000
843.383301	193.000000
843.417419	195.000000
843.451538	185.000000
843.485657	179.000000
843.519714	191.000000
843.553833	185.000000
843.587952	182.000000
843.622070	178.000000
843.656128	193.000000
843.690247	182.000000
843.724304	188.000000
843.758423	187.000000
843.792542	185.000000
843.826599	182.000000
843.860718	183.000000
843.894836	175.000000
843.928894	186.000000
843.963013	185.000000
843.997070	180.000000
844.031128	178.000000
844.065247	194.000000
844.099304	191.000000
844.133362	192.000000
844.167480	189.000000
844.201599	190.000000
844.235596	189.000000
844.269714	187.000000
844.303711	185.000000
844.337830	181.000000
844.371948	186.000000
844.405945	184.000000
844.440063	179.000000
844.474121	200.000000
844.508118	186.000000
844.542236	182.000000
844.576294	186.000000
844.610352	185.000000
844.644409	187.000000
844.678406	181.000000
844.712524	189.000000
844.746582	191.000000
844.780640	188.000000
844.814636	184.000000
844.848755	197.000000
844.882751	185.000000
844.916809	188.000000
844.950867	192.000000
844.984863	198.000000
845.018921	185.000000
845.052979	184.000000
845.086975	186.000000
845.121033	177.000000
845.155090	183.000000
845.189087	192.000000
845.223145	180.000000
845.257141	190.000000
845.291199	187.000000
845.325256	194.000000
845.359253	186.000000
845.393250	198.000000
845.427307	182.000000
845.461304	186.000000
845.495361	186.000000
845.529358	197.000000
845.563354	180.000000
845.597412	182.000000
845.631409	191.000000
845.665405	194.000000
845.699463	190.000000
845.733459	184.000000
845.767456	193.000000
845.801453	187.000000
845.835449	189.000000
845.869446	190.000000
845.903503	188.000000
845.937439	182.000000
845.971497	196.000000
846.005493	185.000000
846.039429	189.000000
846.073486	197.000000
846.107483	184.000000
846.141418	184.000000
846.175476	187.000000
846.209473	200.000000
846.243408	183.000000
846.277405	189.000000
846.311401	186.000000
846.345337	186.000000
846.379395	193.000000
846.413330	184.000000
846.447327	193.000000
846.481323	181.000000
846.515259	186.000000
846.549255	187.000000
846.583252	192.000000
846.617187	179.000000
846.651184	191.000000
846.685120	181.000000
846.719055	198.000000
846.753052	189.000000
846.786987	190.000000
846.820984	181.000000
846.854980	194.000000
846.888916	181.000000
846.922852	193.000000
846.956848	196.000000
846.990723	186.000000
847.024719	185.000000
847.058716	187.000000
847.092590	193.000000
847.126587	191.000000
847.160522	184.000000
847.194458	193.000000
847.228455	180.000000
847.262390	181.000000
847.296265	185.000000
847.330261	192.000000
847.364136	179.000000
847.398132	181.000000
847.432068	188.000000
847.466003	186.000000
847.499939	183.000000
847.533875	193.000000
847.567749	180.000000
847.601746	186.000000
847.635681	188.000000
847.669556	181.000000
847.703491	194.000000
847.737427	201.000000
847.771301	181.000000
847.805237	187.000000
847.839233	186.000000
847.873108	181.000000
847.907043	186.000000
847.940918	193.000000
847.974854	186.000000
848.008789	191.000000
848.042664	186.000000
848.076538	189.000000
848.110474	187.000000
848.144348	183.000000
848.178284	178.000000
848.212219	189.000000
848.246094	185.000000
848.279968	188.000000
848.313904	194.000000
848.347778	183.000000
848.381653	185.000000
848.415588	182.000000
848.449463	185.000000
848.483337	188.000000
848.517212	195.000000
848.551086	185.000000
848.585022	183.000000
848.618835	194.000000
848.652771	188.000000
848.686646	180.000000
848.720520	196.000000
848.754395	184.000000
848.788330	192.000000
848.822144	189.000000
848.856018	187.000000
848.889954	196.000000
848.923767	184.000000
848.957642	182.000000
848.991577	186.000000
849.025391	180.000000
849.059265	191.000000
849.093079	180.000000
849.126953	183.000000
849.160828	195.000000
849.194641	187.000000
849.228577	181.000000
849.262451	189.000000
849.296265	184.000000
849.330139	185.000000
849.364014	187.000000
849.397827	190.000000
849.431702	187.000000
849.465515	194.000000
849.499329	175.000000
849.533203	186.000000
849.567078	180.000000
849.600891	189.000000
849.634766	186.000000
849.668518	192.000000
849.702393	188.000000
849.736267	183.000000
849.770020	198.000000
849.803894	190.000000
849.837769	190.000000
849.871521	187.000000
849.905396	194.000000
849.939270	183.000000
849.973022	189.000000
850.006897	189.000000
850.040710	193.000000
850.074524	186.000000
850.108337	188.000000
850.142151	192.000000
850.175964	195.000000
850.209778	184.000000
850.243530	178.000000
850.277405	194.000000
850.311218	187.000000
850.344971	184.000000
850.378845	197.000000
850.412659	180.000000
850.446411	190.000000
850.480225	187.000000
850.514038	190.000000
850.547791	183.000000
850.581665	184.000000
850.615417	178.000000
850.649231	188.000000
850.683044	185.000000
850.716858	186.000000
850.750610	185.000000
850.784424	192.000000
850.818176	181.000000
850.851929	183.000000
850.885742	183.000000
850.919495	184.000000
850.953308	192.000000
850.987122	198.000000
851.020874	181.000000
851.054626	180.000000
851.088440	186.000000
851.122192	190.000000
851.156006	186.000000
851.189697	188.000000
851.223511	182.000000
851.257263	195.000000
851.291077	192.000000
851.324829	183.000000
851.358582	183.000000
851.392334	186.000000
851.426086	181.000000
851.459900	196.000000
851.493591	189.000000
851.527344	189.000000
851.561157	189.000000
851.594849	191.000000
851.628662	189.000000
851.662415	198.000000
851.696106	192.000000
851.729858	191.000000
851.763611	184.000000
851.797363	188.000000
851.831116	185.000000
851.864868	192.000000
851.898560	193.000000
851.932312	186.000000
851.966064	190.000000
851.999817	186.000000
852.033569	185.000000
852.067261	190.000000
852.101013	187.000000
852.134766	188.000000
852.168457	182.000000
852.202209	192.000000
852.235901	181.000000
852.269592	185.000000
852.303345	198.000000
852.337036	190.000000
852.370789	188.000000
852.404541	190.000000
852.438171	182.000000
852.471924	184.000000
852.505676	181.000000
852.539307	181.000000
852.573059	185.000000
852.606812	187.000000
852.640442	181.000000
852.674194	188.000000
852.707886	196.000000
852.741577	189.000000
852.775269	184.000000
852.809021	186.000000
852.842651	190.000000
852.876404	192.000000
852.910034	188.000000
852.943787	189.000000
852.977478	188.000000
853.011108	182.000000
853.044861	184.000000
853.078552	194.000000
853.112183	186.000000
853.145874	190.000000
853.179626	178.000000
853.213257	188.000000
853.246948	186.000000
853.280640	195.000000
853.314270	185.000000
853.347961	191.000000
853.381653	190.000000
853.415283	191.000000
853.448975	184.000000
853.482605	188.000000
853.516296	184.000000
853.549988	181.000000
853.583618	190.000000
853.617310	190.000000
853.651001	186.000000
853.684631	186.000000
853.718323	184.000000
853.751953	196.000000
853.785583	181.000000
853.819275	196.000000
853.852966	187.000000
853.886536	185.000000
853.920227	183.000000
853.953918	192.000000
853.987488	185.000000
854.021179	192.000000
854.054749	190.000000
854.088440	191.000000
854.122131	185.000000
854.155701	191.000000
854.189331	183.000000
854.223022	188.000000
854.256592	187.000000
854.290283	185.000000
854.323914	191.000000
854.357483	184.000000
854.391174	189.000000
854.424744	197.000000
854.458374	184.000000
854.492065	202.000000
854.525696	185.000000
854.559265	196.000000
854.592896	197.000000
854.626465	188.000000
854.660095	189.000000
854.693787	190.000000
854.727356	185.000000
854.760986	187.000000
854.794617	186.000000
854.828186	185.000000
854.861816	191.000000
854.895447	191.000000
854.929016	191.000000
854.962585	191.000000
854.996155	194.000000
855.029785	186.000000
855.063416	186.000000
855.097046	194.000000
855.130615	182.000000
855.164185	189.000000
855.197754	187.000000
855.231384	190.000000
855.264954	185.000000
855.298523	189.000000
855.332153	191.000000
855.365723	191.000000
855.399292	181.000000
855.432922	182.000000
855.466492	187.000000
855.500061	179.000000
855.533630	183.000000
855.567200	190.000000
855.600769	196.000000
855.634338	191.000000
855.667969	192.000000
855.701477	181.000000
855.735046	182.000000
855.768616	174.000000
855.802185	190.000000
855.835754	198.000000
855.869324	180.000000
855.902893	182.000000
855.936401	196.000000
855.969971	185.000000
856.003540	183.000000
856.037109	188.000000
856.070618	183.000000
856.104187	177.000000
856.137695	184.000000
856.171265	175.000000
856.204834	187.000000
856.238403	191.000000
856.271912	183.000000
856.305481	187.000000
856.338989	179.000000
856.372559	185.000000
856.406128	191.000000
856.439636	189.000000
856.473145	183.000000
856.506653	194.000000
856.540222	190.000000
856.573792	192.000000
856.607300	193.000000
856.640808	182.000000
856.674377	189.000000
856.707825	217.000000
856.741394	197.000000
856.774902	183.000000
856.808472	180.000000
856.841980	193.000000
856.875488	197.000000
856.908936	183.000000
856.942505	189.000000
856.976013	188.000000
857.009521	183.000000
857.043030	189.000000
857.076477	183.000000
857.110046	193.000000
857.143555	187.000000
857.177063	190.000000
857.210571	185.000000
857.244080	184.000000
857.277527	187.000000
857.311035	187.000000
857.344543	191.000000
857.378052	186.000000
857.411499	191.000000
857.445068	195.000000
857.478516	183.000000
857.512024	185.000000
857.545532	185.000000
857.578979	188.000000
857.612427	191.000000
857.645874	184.000000
857.679382	186.000000
857.712891	193.000000
857.746399	184.000000
857.779846	194.000000
857.813354	192.000000
857.846741	189.000000
857.880249	179.000000
857.913757	189.000000
857.947266	190.000000
857.980652	188.000000
858.014160	184.000000
858.047546	185.000000
858.081055	185.000000
858.114563	200.000000
858.147949	182.000000
858.181458	187.000000
858.214844	188.000000
858.248352	184.000000
858.281799	188.000000
858.315308	200.000000
858.348694	192.000000
858.382141	196.000000
858.415588	189.000000
858.449036	191.000000
858.482483	188.000000
858.515930	187.000000
858.549377	188.000000
858.582825	195.000000
858.616211	187.000000
858.649658	189.000000
858.683105	177.000000
858.716553	184.000000
858.750000	183.000000
858.783386	187.000000
858.816833	184.000000
858.850281	186.000000
858.883728	188.000000
858.917114	187.000000
858.950562	197.000000
858.983948	191.000000
859.017395	191.000000
859.050781	188.000000
859.084167	184.000000
859.117615	182.000000
859.151062	193.000000
859.184448	184.000000
859.217834	189.000000
859.251282	187.000000
859.284668	180.000000
859.318054	180.000000
859.351440	188.000000
859.384888	191.000000
859.418274	180.000000
859.451721	177.000000
859.485046	188.000000
859.518494	185.000000
859.551819	184.000000
859.585266	185.000000
859.618652	193.000000
859.652039	178.000000
859.685425	182.000000
859.718811	177.000000
859.752197	179.000000
859.785583	190.000000
859.819031	196.000000
859.852356	190.000000
859.885742	183.000000
859.919067	189.000000
859.952454	188.000000
859.985901	189.000000
860.019287	187.000000
860.052612	0.000000
860.085999	0.000000
860.119324	0.000000
860.152710	0.000000
860.186096	0.000000
860.219421	0.000000
860.252808	0.000000
860.286133	0.000000
860.319519	0.000000
860.352905	0.000000
860.386292	0.000000
860.419617	0.000000
860.452942	0.000000
860.486267	0.000000
860.519653	0.000000
860.553040	0.000000
860.586365	0.000000
860.619690	0.000000
860.653076	0.000000
860.686340	0.000000
860.719727	0.000000
860.753113	0.000000
860.786377	0.000000
860.819763	0.000000
860.853027	0.000000
860.886414	0.000000
860.919739	0.000000
860.953125	0.000000
860.986389	0.000000
861.019714	0.000000
861.053040	0.000000
861.086365	0.000000
861.119690	0.000000
861.153076	0.000000
861.186340	0.000000
861.219666	0.000000
861.252930	0.000000
861.286316	0.000000
861.319641	0.000000
861.352905	0.000000
861.386230	0.000000
861.419495	0.000000
861.452820	0.000000
861.486145	0.000000
861.519470	0.000000
861.552734	0.000000
861.586060	0.000000
861.619324	0.000000
861.652649	0.000000
861.685974	0.000000
861.719238	0.000000
861.752563	0.000000
861.785828	0.000000
861.819092	0.000000
861.852417	0.000000
861.885742	0.000000
861.918945	0.000000
861.952271	0.000000
861.985535	0.000000
862.018799	0.000000
862.052124	0.000000
862.085449	0.000000
862.118652	0.000000
862.151978	0.000000
862.185181	0.000000
862.218506	0.000000
862.251770	0.000000
862.285034	0.000000
862.318298	0.000000
862.351562	0.000000
862.384827	0.000000
862.418091	0.000000
862.451355	0.000000
862.484619	0.000000
862.517883	0.000000
862.551086	0.000000
862.584351	0.000000
862.617676	0.000000
862.650940	0.000000
862.684143	0.000000
862.717407	0.000000
862.750610	0.000000
862.783875	0.000000
862.817139	0.000000
862.850342	0.000000
862.883606	0.000000
862.916870	0.000000
862.950073	0.000000
862.983337	0.000000
863.016602	0.000000
863.049805	0.000000
863.083069	0.000000
863.116211	0.000000
863.149475	0.000000
863.182739	0.000000
863.216003	0.000000
863.249146	0.000000
863.282410	0.000000
863.315613	0.000000
863.348816	0.000000
863.382080	0.000000
863.415222	0.000000
863.448486	0.000000
863.481689	0.000000
863.514893	0.000000
863.548157	0.000000
863.581360	0.000000
863.614502	0.000000
863.647766	0.000000
863.680908	0.000000
863.714172	0.000000
863.747375	0.000000
863.780579	0.000000
863.813721	0.000000
863.846985	0.000000
863.880127	0.000000
863.913330	0.000000
863.946533	0.000000
863.979675	0.000000
864.012939	0.000000
