Model Number: SPM-001-M   
Serial Number: 10090201
Firmware Version: 004.17.6
Exposure Time: 500000.000000us
Data Taken on: 27-08-2020 10:02:33.973
Wavelength	Amplitude
733.770752	0.000000
733.808716	0.000000
733.846619	0.000000
733.884583	0.000000
733.922546	0.000000
733.960449	0.000000
733.998413	0.000000
734.036377	0.000000
734.074219	0.000000
734.112183	0.000000
734.150085	0.000000
734.188049	0.000000
734.226013	0.000000
734.263916	0.000000
734.301819	0.000000
734.339783	0.000000
734.377686	0.000000
734.415588	0.000000
734.453552	0.000000
734.491455	0.000000
734.529419	0.000000
734.567322	0.000000
734.605225	0.000000
734.643127	0.000000
734.681091	0.000000
734.718994	0.000000
734.756897	0.000000
734.794800	0.000000
734.832703	0.000000
734.870667	0.000000
734.908508	0.000000
734.946472	0.000000
734.984375	0.000000
735.022278	0.000000
735.060181	0.000000
735.098083	0.000000
735.135986	0.000000
735.173889	0.000000
735.211792	0.000000
735.249695	0.000000
735.287598	0.000000
735.325439	0.000000
735.363403	0.000000
735.401306	0.000000
735.439148	0.000000
735.477051	0.000000
735.515015	0.000000
735.552856	0.000000
735.590759	0.000000
735.628662	0.000000
735.666504	0.000000
735.704407	0.000000
735.742310	0.000000
735.780212	0.000000
735.818115	0.000000
735.856018	0.000000
735.893860	0.000000
735.931763	0.000000
735.969604	0.000000
736.007507	0.000000
736.045410	0.000000
736.083252	0.000000
736.121094	0.000000
736.158997	0.000000
736.196838	0.000000
736.234741	0.000000
736.272644	0.000000
736.310486	0.000000
736.348389	0.000000
736.386230	0.000000
736.424072	0.000000
736.461975	0.000000
736.499878	0.000000
736.537720	0.000000
736.575562	0.000000
736.613403	0.000000
736.651306	0.000000
736.689148	0.000000
736.726990	0.000000
736.764893	0.000000
736.802734	0.000000
736.840576	0.000000
736.878418	0.000000
736.916321	0.000000
736.954102	0.000000
736.992004	0.000000
737.029846	0.000000
737.067688	0.000000
737.105530	0.000000
737.143372	0.000000
737.181213	0.000000
737.219116	0.000000
737.256897	0.000000
737.294739	0.000000
737.332642	0.000000
737.370422	0.000000
737.408325	0.000000
737.446167	0.000000
737.483948	0.000000
737.521790	0.000000
737.559692	0.000000
737.597473	0.000000
737.635315	0.000000
737.673157	0.000000
737.710999	0.000000
737.748840	0.000000
737.786621	0.000000
737.824463	0.000000
737.862305	0.000000
737.900085	0.000000
737.937927	0.000000
737.975769	0.000000
738.013550	0.000000
738.051392	0.000000
738.089233	0.000000
738.127014	0.000000
738.164856	0.000000
738.202698	0.000000
738.240479	0.000000
738.278320	0.000000
738.316162	0.000000
738.353943	0.000000
738.391785	0.000000
738.429565	0.000000
738.467407	0.000000
738.505188	0.000000
738.542969	0.000000
738.580811	0.000000
738.618652	0.000000
738.656372	0.000000
738.694214	0.000000
738.732056	0.000000
738.769836	0.000000
738.807617	0.000000
738.845459	0.000000
738.883240	0.000000
738.921021	0.000000
738.958862	0.000000
738.996582	0.000000
739.034424	0.000000
739.072205	0.000000
739.109985	0.000000
739.147827	0.000000
739.185547	0.000000
739.223389	0.000000
739.261169	0.000000
739.298889	0.000000
739.336731	0.000000
739.374512	0.000000
739.412292	0.000000
739.450073	0.000000
739.487854	0.000000
739.525635	0.000000
739.563416	0.000000
739.601135	0.000000
739.638977	0.000000
739.676758	0.000000
739.714478	0.000000
739.752258	0.000000
739.790100	0.000000
739.827820	0.000000
739.865601	0.000000
739.903381	0.000000
739.941101	0.000000
739.978882	188.000000
740.016724	187.000000
740.054443	189.000000
740.092224	182.000000
740.130005	179.000000
740.167725	181.000000
740.205505	180.000000
740.243225	193.000000
740.281006	187.000000
740.318787	178.000000
740.356506	190.000000
740.394287	190.000000
740.432068	179.000000
740.469727	183.000000
740.507507	190.000000
740.545288	186.000000
740.583008	188.000000
740.620789	181.000000
740.658569	172.000000
740.696228	184.000000
740.734009	185.000000
740.771790	171.000000
740.809509	184.000000
740.847229	180.000000
740.884949	180.000000
740.922729	178.000000
740.960449	177.000000
740.998169	179.000000
741.035950	177.000000
741.073669	184.000000
741.111389	183.000000
741.149170	196.000000
741.186890	191.000000
741.224609	192.000000
741.262329	185.000000
741.300110	193.000000
741.337769	178.000000
741.375549	183.000000
741.413208	179.000000
741.450989	182.000000
741.488708	181.000000
741.526367	184.000000
741.564148	190.000000
741.601868	190.000000
741.639526	183.000000
741.677307	188.000000
741.715027	189.000000
741.752686	180.000000
741.790466	197.000000
741.828186	186.000000
741.865845	183.000000
741.903564	172.000000
741.941345	187.000000
741.979004	182.000000
742.016724	193.000000
742.054382	182.000000
742.092102	192.000000
742.129822	184.000000
742.167480	183.000000
742.205200	185.000000
742.242920	189.000000
742.280640	185.000000
742.318359	181.000000
742.356079	186.000000
742.393738	188.000000
742.431396	179.000000
742.469116	188.000000
742.506775	177.000000
742.544495	190.000000
742.582214	188.000000
742.619873	184.000000
742.657593	190.000000
742.695251	190.000000
742.732971	183.000000
742.770630	186.000000
742.808289	184.000000
742.846008	188.000000
742.883728	185.000000
742.921326	184.000000
742.959045	183.000000
742.996765	182.000000
743.034424	186.000000
743.072083	182.000000
743.109802	178.000000
743.147400	178.000000
743.185120	185.000000
743.222839	181.000000
743.260437	192.000000
743.298157	188.000000
743.335754	173.000000
743.373474	180.000000
743.411133	176.000000
743.448792	188.000000
743.486450	184.000000
743.524170	181.000000
743.561768	185.000000
743.599487	194.000000
743.637146	197.000000
743.674744	179.000000
743.712463	185.000000
743.750122	182.000000
743.787720	187.000000
743.825439	181.000000
743.863037	182.000000
743.900696	183.000000
743.938416	212.000000
743.976013	182.000000
744.013672	188.000000
744.051331	190.000000
744.088928	194.000000
744.126587	188.000000
744.164307	190.000000
744.201904	179.000000
744.239563	188.000000
744.277222	183.000000
744.314819	183.000000
744.352478	192.000000
744.390137	189.000000
744.427734	183.000000
744.465393	186.000000
744.502991	179.000000
744.540649	184.000000
744.578308	183.000000
744.615906	177.000000
744.653564	173.000000
744.691223	185.000000
744.728821	178.000000
744.766418	185.000000
744.804077	184.000000
744.841675	179.000000
744.879333	180.000000
744.916992	182.000000
744.954529	184.000000
744.992187	192.000000
745.029785	183.000000
745.067444	182.000000
745.105042	184.000000
745.142639	187.000000
745.180298	190.000000
745.217896	185.000000
745.255493	181.000000
745.293152	190.000000
745.330750	189.000000
745.368347	193.000000
745.405945	186.000000
745.443604	190.000000
745.481140	185.000000
745.518799	186.000000
745.556396	190.000000
745.593994	190.000000
745.631592	186.000000
745.669189	181.000000
745.706787	189.000000
745.744385	183.000000
745.781982	192.000000
745.819580	183.000000
745.857178	193.000000
745.894775	185.000000
745.932373	186.000000
745.969971	189.000000
746.007568	178.000000
746.045166	189.000000
746.082764	194.000000
746.120300	188.000000
746.157898	183.000000
746.195557	185.000000
746.233093	182.000000
746.270691	189.000000
746.308228	189.000000
746.345825	191.000000
746.383423	186.000000
746.420959	183.000000
746.458557	181.000000
746.496155	178.000000
746.533691	185.000000
746.571289	178.000000
746.608887	187.000000
746.646423	183.000000
746.684021	187.000000
746.721619	180.000000
746.759155	188.000000
746.796753	179.000000
746.834351	177.000000
746.871826	182.000000
746.909424	192.000000
746.946960	181.000000
746.984558	185.000000
747.022156	181.000000
747.059631	194.000000
747.097229	186.000000
747.134827	183.000000
747.172363	188.000000
747.209900	189.000000
747.247498	180.000000
747.285034	189.000000
747.322571	191.000000
747.360168	189.000000
747.397644	181.000000
747.435242	189.000000
747.472778	194.000000
747.510315	183.000000
747.547913	179.000000
747.585388	191.000000
747.622925	186.000000
747.660522	177.000000
747.697998	187.000000
747.735596	187.000000
747.773132	184.000000
747.810669	181.000000
747.848206	191.000000
747.885742	178.000000
747.923279	184.000000
747.960815	185.000000
747.998352	188.000000
748.035889	192.000000
748.073425	190.000000
748.110901	182.000000
748.148437	182.000000
748.185974	183.000000
748.223511	196.000000
748.261047	184.000000
748.298584	186.000000
748.336060	183.000000
748.373596	189.000000
748.411133	198.000000
748.448608	183.000000
748.486145	187.000000
748.523682	191.000000
748.561218	191.000000
748.598755	185.000000
748.636292	184.000000
748.673706	186.000000
748.711243	191.000000
748.748718	187.000000
748.786255	182.000000
748.823792	186.000000
748.861267	179.000000
748.898804	185.000000
748.936340	185.000000
748.973816	183.000000
749.011292	187.000000
749.048828	187.000000
749.086304	186.000000
749.123840	201.000000
749.161316	180.000000
749.198792	197.000000
749.236328	191.000000
749.273743	189.000000
749.311279	183.000000
749.348816	191.000000
749.386230	189.000000
749.423767	177.000000
749.461304	187.000000
749.498718	187.000000
749.536255	193.000000
749.573730	197.000000
749.611206	193.000000
749.648682	188.000000
749.686218	189.000000
749.723633	186.000000
749.761169	183.000000
749.798645	178.000000
749.836060	185.000000
749.873596	181.000000
749.911011	186.000000
749.948547	190.000000
749.986023	187.000000
750.023437	183.000000
750.060913	180.000000
750.098450	174.000000
750.135864	187.000000
750.173340	184.000000
750.210815	189.000000
750.248291	179.000000
750.285767	186.000000
750.323242	188.000000
750.360657	188.000000
750.398132	180.000000
750.435608	183.000000
750.473022	180.000000
750.510498	177.000000
750.547974	179.000000
750.585449	183.000000
750.622925	174.000000
750.660339	194.000000
750.697815	185.000000
750.735291	186.000000
750.772644	185.000000
750.810120	188.000000
750.847595	185.000000
750.885010	183.000000
750.922485	192.000000
750.959961	183.000000
750.997375	191.000000
751.034851	192.000000
751.072266	188.000000
751.109680	179.000000
751.147156	189.000000
751.184570	189.000000
751.221985	187.000000
751.259460	178.000000
751.296875	184.000000
751.334290	187.000000
751.371765	193.000000
751.409180	188.000000
751.446594	192.000000
751.484070	189.000000
751.521423	190.000000
751.558899	187.000000
751.596375	193.000000
751.633728	191.000000
751.671204	195.000000
751.708618	179.000000
751.746033	187.000000
751.783447	178.000000
751.820801	180.000000
751.858276	185.000000
751.895691	185.000000
751.933105	177.000000
751.970520	177.000000
752.007935	179.000000
752.045349	189.000000
752.082764	183.000000
752.120178	185.000000
752.157532	178.000000
752.195007	185.000000
752.232422	184.000000
752.269775	192.000000
752.307190	187.000000
752.344543	180.000000
752.382019	179.000000
752.419434	184.000000
752.456787	184.000000
752.494202	191.000000
752.531616	187.000000
752.568970	188.000000
752.606384	186.000000
752.643799	188.000000
752.681152	191.000000
752.718567	188.000000
752.755981	179.000000
752.793335	189.000000
752.830750	179.000000
752.868164	192.000000
752.905518	181.000000
752.942932	192.000000
752.980225	183.000000
753.017639	190.000000
753.055054	188.000000
753.092407	186.000000
753.129822	186.000000
753.167175	197.000000
753.204529	188.000000
753.241943	183.000000
753.279358	183.000000
753.316650	190.000000
753.354065	187.000000
753.391479	186.000000
753.428772	197.000000
753.466187	189.000000
753.503479	182.000000
753.540894	182.000000
753.578308	181.000000
753.615601	181.000000
753.653015	191.000000
753.690369	183.000000
753.727722	185.000000
753.765076	177.000000
753.802490	180.000000
753.839783	180.000000
753.877136	184.000000
753.914551	201.000000
753.951843	183.000000
753.989258	184.000000
754.026611	186.000000
754.063904	185.000000
754.101257	183.000000
754.138611	172.000000
754.175964	187.000000
754.213318	195.000000
754.250610	177.000000
754.288025	185.000000
754.325378	185.000000
754.362671	186.000000
754.400024	185.000000
754.437378	196.000000
754.474670	192.000000
754.512085	182.000000
754.549438	188.000000
754.586731	178.000000
754.624084	187.000000
754.661438	179.000000
754.698730	193.000000
754.736084	182.000000
754.773376	188.000000
754.810730	184.000000
754.848083	185.000000
754.885315	186.000000
754.922668	178.000000
754.960022	181.000000
754.997314	190.000000
755.034668	187.000000
755.072021	188.000000
755.109253	184.000000
755.146606	193.000000
755.183960	187.000000
755.221252	196.000000
755.258545	192.000000
755.295898	195.000000
755.333191	195.000000
755.370544	185.000000
755.407776	192.000000
755.445129	188.000000
755.482422	190.000000
755.519714	186.000000
755.557068	186.000000
755.594360	179.000000
755.631653	194.000000
755.668945	193.000000
755.706299	192.000000
755.743530	198.000000
755.780884	195.000000
755.818176	192.000000
755.855408	200.000000
755.892761	188.000000
755.930054	191.000000
755.967346	192.000000
756.004639	193.000000
756.041870	187.000000
756.079224	198.000000
756.116516	187.000000
756.153748	189.000000
756.191040	197.000000
756.228394	193.000000
756.265625	185.000000
756.302917	191.000000
756.340210	189.000000
756.377441	193.000000
756.414795	198.000000
756.452087	192.000000
756.489319	182.000000
756.526611	194.000000
756.563843	188.000000
756.601135	198.000000
756.638428	198.000000
756.675659	193.000000
756.712952	193.000000
756.750244	194.000000
756.787476	193.000000
756.824768	196.000000
756.862061	196.000000
756.899292	242.000000
756.936584	194.000000
756.973816	208.000000
757.011047	210.000000
757.048340	196.000000
757.085632	199.000000
757.122864	211.000000
757.160156	189.000000
757.197327	200.000000
757.234619	197.000000
757.271912	196.000000
757.309082	203.000000
757.346375	189.000000
757.383667	203.000000
757.420837	194.000000
757.458130	199.000000
757.495422	193.000000
757.532593	197.000000
757.569885	189.000000
757.607117	192.000000
757.644348	195.000000
757.681580	206.000000
757.718811	183.000000
757.756042	198.000000
757.793335	193.000000
757.830505	202.000000
757.867798	192.000000
757.905029	197.000000
757.942200	195.000000
757.979492	194.000000
758.016724	196.000000
758.053894	197.000000
758.091187	214.000000
758.128418	202.000000
758.165588	194.000000
758.202820	209.000000
758.240112	198.000000
758.277283	205.000000
758.314514	198.000000
758.351685	200.000000
758.388916	202.000000
758.426147	205.000000
758.463379	209.000000
758.500610	201.000000
758.537842	202.000000
758.575012	208.000000
758.612244	197.000000
758.649475	211.000000
758.686646	198.000000
758.723877	205.000000
758.761108	212.000000
758.798279	200.000000
758.835510	203.000000
758.872742	209.000000
758.909851	203.000000
758.947083	204.000000
758.984253	204.000000
759.021484	208.000000
759.058716	208.000000
759.095886	209.000000
759.133057	204.000000
759.170288	204.000000
759.207458	202.000000
759.244690	217.000000
759.281860	217.000000
759.319031	208.000000
759.356262	207.000000
759.393433	199.000000
759.430603	206.000000
759.467773	201.000000
759.505005	213.000000
759.542175	210.000000
759.579346	207.000000
759.616516	205.000000
759.653687	214.000000
759.690918	200.000000
759.728027	211.000000
759.765259	206.000000
759.802429	213.000000
759.839539	206.000000
759.876770	210.000000
759.913940	214.000000
759.951111	209.000000
759.988281	206.000000
760.025452	206.000000
760.062561	198.000000
760.099792	218.000000
760.136963	210.000000
760.174072	208.000000
760.211243	198.000000
760.248413	207.000000
760.285583	201.000000
760.322754	220.000000
760.359863	215.000000
760.397034	212.000000
760.434204	211.000000
760.471375	216.000000
760.508545	213.000000
760.545715	213.000000
760.582825	206.000000
760.619995	215.000000
760.657166	205.000000
760.694275	217.000000
760.731445	210.000000
760.768555	219.000000
760.805664	217.000000
760.842834	216.000000
760.879944	214.000000
760.917114	216.000000
760.954285	215.000000
760.991394	208.000000
761.028564	223.000000
761.065674	218.000000
761.102783	212.000000
761.139954	221.000000
761.177124	219.000000
761.214172	224.000000
761.251343	218.000000
761.288452	216.000000
761.325562	227.000000
761.362732	214.000000
761.399841	216.000000
761.436951	218.000000
761.474121	219.000000
761.511169	219.000000
761.548340	225.000000
761.585449	224.000000
761.622559	222.000000
761.659668	221.000000
761.696838	232.000000
761.733887	220.000000
761.771057	218.000000
761.808167	225.000000
761.845276	236.000000
761.882385	235.000000
761.919434	229.000000
761.956604	245.000000
761.993713	224.000000
762.030762	232.000000
762.067871	233.000000
762.105042	224.000000
762.142090	242.000000
762.179199	229.000000
762.216309	235.000000
762.253418	252.000000
762.290527	236.000000
762.327637	236.000000
762.364685	230.000000
762.401794	237.000000
762.438904	240.000000
762.475952	232.000000
762.513062	232.000000
762.550110	231.000000
762.587219	242.000000
762.624329	240.000000
762.661377	242.000000
762.698486	241.000000
762.735596	238.000000
762.772644	237.000000
762.809753	230.000000
762.846863	238.000000
762.883911	241.000000
762.921021	242.000000
762.958069	239.000000
762.995117	247.000000
763.032227	245.000000
763.069336	240.000000
763.106323	234.000000
763.143433	241.000000
763.180481	244.000000
763.217590	244.000000
763.254639	240.000000
763.291687	237.000000
763.328735	243.000000
763.365845	240.000000
763.402893	237.000000
763.439941	242.000000
763.477051	245.000000
763.514038	249.000000
763.551147	243.000000
763.588196	248.000000
763.625244	241.000000
763.662292	255.000000
763.699402	255.000000
763.736389	250.000000
763.773499	254.000000
763.810486	253.000000
763.847534	241.000000
763.884644	260.000000
763.921631	250.000000
763.958679	267.000000
763.995728	251.000000
764.032776	266.000000
764.069824	249.000000
764.106873	260.000000
764.143860	264.000000
764.180969	247.000000
764.218018	262.000000
764.255005	254.000000
764.292053	255.000000
764.329102	266.000000
764.366089	264.000000
764.403137	270.000000
764.440125	261.000000
764.477173	267.000000
764.514221	268.000000
764.551208	261.000000
764.588257	263.000000
764.625305	269.000000
764.662292	273.000000
764.699341	270.000000
764.736389	267.000000
764.773376	285.000000
764.810425	270.000000
764.847473	280.000000
764.884399	275.000000
764.921448	285.000000
764.958435	285.000000
764.995483	268.000000
765.032532	295.000000
765.069458	272.000000
765.106506	278.000000
765.143555	267.000000
765.180481	276.000000
765.217529	288.000000
765.254578	278.000000
765.291504	278.000000
765.328552	286.000000
765.365540	279.000000
765.402527	295.000000
765.439575	285.000000
765.476501	278.000000
765.513550	278.000000
765.550537	284.000000
765.587463	284.000000
765.624512	278.000000
765.661499	271.000000
765.698486	294.000000
765.735474	279.000000
765.772461	288.000000
765.809448	285.000000
765.846436	286.000000
765.883423	293.000000
765.920410	289.000000
765.957397	288.000000
765.994385	295.000000
766.031311	302.000000
766.068359	293.000000
766.105286	290.000000
766.142273	304.000000
766.179260	289.000000
766.216187	291.000000
766.253174	290.000000
766.290161	292.000000
766.327148	298.000000
766.364136	300.000000
766.401123	319.000000
766.438049	298.000000
766.475037	313.000000
766.512024	312.000000
766.548950	321.000000
766.585937	323.000000
766.622864	316.000000
766.659790	311.000000
766.696777	305.000000
766.733704	317.000000
766.770691	309.000000
766.807678	327.000000
766.844604	323.000000
766.881531	323.000000
766.918518	324.000000
766.955444	326.000000
766.992432	324.000000
767.029358	331.000000
767.066284	325.000000
767.103271	329.000000
767.140198	363.000000
767.177124	340.000000
767.214050	338.000000
767.251038	337.000000
767.287964	338.000000
767.324890	331.000000
767.361816	338.000000
767.398743	339.000000
767.435730	344.000000
767.472595	347.000000
767.509583	354.000000
767.546509	340.000000
767.583374	353.000000
767.620361	339.000000
767.657288	351.000000
767.694214	349.000000
767.731140	346.000000
767.768066	350.000000
767.804993	358.000000
767.841919	341.000000
767.878845	357.000000
767.915710	363.000000
767.952698	356.000000
767.989563	354.000000
768.026489	367.000000
768.063416	358.000000
768.100281	360.000000
768.137207	364.000000
768.174133	363.000000
768.211060	368.000000
768.247986	369.000000
768.284912	366.000000
768.321777	365.000000
768.358704	366.000000
768.395630	370.000000
768.432495	365.000000
768.469421	372.000000
768.506348	374.000000
768.543152	383.000000
768.580078	377.000000
768.616943	378.000000
768.653870	378.000000
768.690796	382.000000
768.727661	383.000000
768.764587	381.000000
768.801453	371.000000
768.838318	382.000000
768.875244	387.000000
768.912109	395.000000
768.948975	391.000000
768.985901	385.000000
769.022766	388.000000
769.059631	387.000000
769.096558	390.000000
769.133362	389.000000
769.170288	391.000000
769.207214	393.000000
769.244019	396.000000
769.280945	396.000000
769.317810	404.000000
769.354675	403.000000
769.391541	415.000000
769.428406	410.000000
769.465271	418.000000
769.502136	408.000000
769.539062	418.000000
769.575867	411.000000
769.612732	414.000000
769.649597	420.000000
769.686462	427.000000
769.723328	420.000000
769.760193	418.000000
769.797058	417.000000
769.833923	430.000000
769.870728	418.000000
769.907593	431.000000
769.944519	422.000000
769.981323	420.000000
770.018188	436.000000
770.055054	430.000000
770.091858	431.000000
770.128723	444.000000
770.165588	452.000000
770.202393	429.000000
770.239258	454.000000
770.276062	441.000000
770.312927	445.000000
770.349792	441.000000
770.386597	443.000000
770.423462	457.000000
770.460327	469.000000
770.497131	445.000000
770.533997	447.000000
770.570862	460.000000
770.607605	453.000000
770.644470	454.000000
770.681335	458.000000
770.718140	462.000000
770.754944	457.000000
770.791809	452.000000
770.828613	453.000000
770.865479	453.000000
770.902222	470.000000
770.939087	462.000000
770.975952	461.000000
771.012695	463.000000
771.049561	474.000000
771.086365	459.000000
771.123169	465.000000
771.159973	463.000000
771.196838	462.000000
771.233582	470.000000
771.270447	466.000000
771.307251	477.000000
771.344055	466.000000
771.380859	465.000000
771.417664	470.000000
771.454468	476.000000
771.491272	469.000000
771.528076	477.000000
771.564880	471.000000
771.601685	479.000000
771.638428	477.000000
771.675293	492.000000
771.712097	475.000000
771.748840	495.000000
771.785645	486.000000
771.822449	487.000000
771.859253	488.000000
771.896057	498.000000
771.932861	513.000000
771.969604	502.000000
772.006409	496.000000
772.043213	512.000000
772.079956	506.000000
772.116760	504.000000
772.153503	517.000000
772.190308	522.000000
772.227112	517.000000
772.263855	509.000000
772.300659	524.000000
772.337463	523.000000
772.374207	521.000000
772.411011	516.000000
772.447754	524.000000
772.484497	529.000000
772.521301	513.000000
772.558105	524.000000
772.594849	527.000000
772.631592	544.000000
772.668396	537.000000
772.705139	549.000000
772.741882	536.000000
772.778625	549.000000
772.815430	556.000000
772.852173	560.000000
772.888916	562.000000
772.925720	562.000000
772.962463	575.000000
772.999207	565.000000
773.035950	571.000000
773.072754	582.000000
773.109436	572.000000
773.146240	570.000000
773.182922	560.000000
773.219727	570.000000
773.256470	568.000000
773.293152	569.000000
773.329956	580.000000
773.366699	581.000000
773.403381	581.000000
773.440186	590.000000
773.476929	580.000000
773.513611	588.000000
773.550354	598.000000
773.587158	593.000000
773.623840	580.000000
773.660583	592.000000
773.697327	603.000000
773.734009	609.000000
773.770813	610.000000
773.807495	609.000000
773.844238	608.000000
773.880981	612.000000
773.917664	609.000000
773.954407	619.000000
773.991150	612.000000
774.027832	626.000000
774.064575	621.000000
774.101318	625.000000
774.138000	616.000000
774.174744	625.000000
774.211487	644.000000
774.248108	638.000000
774.284851	643.000000
774.321594	643.000000
774.358276	639.000000
774.395020	645.000000
774.431702	658.000000
774.468384	663.000000
774.505127	656.000000
774.541809	645.000000
774.578491	650.000000
774.615234	649.000000
774.651917	656.000000
774.688599	653.000000
774.725342	674.000000
774.762024	665.000000
774.798706	662.000000
774.835449	650.000000
774.872070	673.000000
774.908813	680.000000
774.945496	688.000000
774.982178	675.000000
775.018860	671.000000
775.055542	663.000000
775.092224	674.000000
775.128967	682.000000
775.165588	706.000000
775.202271	682.000000
775.239014	690.000000
775.275635	689.000000
775.312317	680.000000
775.349060	691.000000
775.385681	717.000000
775.422363	711.000000
775.459045	706.000000
775.495667	704.000000
775.532410	698.000000
775.569092	705.000000
775.605713	720.000000
775.642395	730.000000
775.679016	730.000000
775.715698	716.000000
775.752380	711.000000
775.789001	713.000000
775.825684	719.000000
775.862366	731.000000
775.898987	739.000000
775.935669	726.000000
775.972351	733.000000
776.008972	724.000000
776.045654	737.000000
776.082336	742.000000
776.118958	739.000000
776.155640	747.000000
776.192322	734.000000
776.228882	727.000000
776.265564	730.000000
776.302185	744.000000
776.338867	753.000000
776.375488	747.000000
776.412109	750.000000
776.448792	748.000000
776.485413	758.000000
776.522034	762.000000
776.558716	744.000000
776.595337	747.000000
776.631958	755.000000
776.668579	733.000000
776.705261	748.000000
776.741882	746.000000
776.778503	759.000000
776.815186	758.000000
776.851746	761.000000
776.888367	745.000000
776.924988	763.000000
776.961609	767.000000
776.998291	767.000000
777.034851	758.000000
777.071472	763.000000
777.108154	753.000000
777.144714	753.000000
777.181335	771.000000
777.218018	758.000000
777.254578	784.000000
777.291199	781.000000
777.327759	789.000000
777.364380	793.000000
777.401062	810.000000
777.437622	819.000000
777.474243	813.000000
777.510864	829.000000
777.547424	826.000000
777.584045	826.000000
777.620667	833.000000
777.657227	829.000000
777.693848	825.000000
777.730469	855.000000
777.767029	848.000000
777.803650	848.000000
777.840271	842.000000
777.876831	835.000000
777.913452	858.000000
777.950012	830.000000
777.986633	823.000000
778.023193	828.000000
778.059753	828.000000
778.096375	826.000000
778.132996	846.000000
778.169556	830.000000
778.206116	840.000000
778.242737	841.000000
778.279297	847.000000
778.315857	845.000000
778.352478	872.000000
778.389038	869.000000
778.425598	871.000000
778.462219	881.000000
778.498718	889.000000
778.535339	886.000000
778.571838	890.000000
778.608459	897.000000
778.645020	882.000000
778.681580	896.000000
778.718140	900.000000
778.754761	895.000000
778.791260	889.000000
778.827881	893.000000
778.864441	893.000000
778.900940	896.000000
778.937561	898.000000
778.974121	900.000000
779.010620	896.000000
779.047241	904.000000
779.083801	915.000000
779.120300	926.000000
779.156860	949.000000
779.193359	945.000000
779.229980	947.000000
779.266541	954.000000
779.303040	944.000000
779.339600	949.000000
779.376160	959.000000
779.412659	969.000000
779.449219	979.000000
779.485779	985.000000
779.522278	965.000000
779.558838	971.000000
779.595398	967.000000
779.631897	952.000000
779.668457	954.000000
779.705017	988.000000
779.741516	952.000000
779.778076	947.000000
779.814575	954.000000
779.851074	946.000000
779.887634	957.000000
779.924133	965.000000
779.960693	960.000000
779.997253	959.000000
780.033691	945.000000
780.070251	955.000000
780.106812	953.000000
780.143250	972.000000
780.179810	959.000000
780.216370	959.000000
780.252808	956.000000
780.289368	947.000000
780.325867	962.000000
780.362366	958.000000
780.398865	967.000000
780.435364	965.000000
780.471863	963.000000
780.508423	944.000000
780.544861	948.000000
780.581421	955.000000
780.617920	941.000000
780.654419	937.000000
780.690918	934.000000
780.727417	913.000000
780.763916	913.000000
780.800415	918.000000
780.836914	923.000000
780.873352	940.000000
780.909912	936.000000
780.946411	929.000000
780.982849	944.000000
781.019348	948.000000
781.055786	926.000000
781.092346	931.000000
781.128845	949.000000
781.165283	931.000000
781.201782	932.000000
781.238281	927.000000
781.274719	928.000000
781.311218	932.000000
781.347717	933.000000
781.384155	928.000000
781.420654	928.000000
781.457092	915.000000
781.493591	902.000000
781.530090	883.000000
781.566528	880.000000
781.602966	867.000000
781.639465	849.000000
781.675903	821.000000
781.712402	815.000000
781.748901	809.000000
781.785278	780.000000
781.821777	773.000000
781.858276	757.000000
781.894714	748.000000
781.931152	721.000000
781.967651	722.000000
782.004089	690.000000
782.040527	674.000000
782.076965	667.000000
782.113403	649.000000
782.149902	623.000000
782.186340	603.000000
782.222778	610.000000
782.259277	574.000000
782.295654	553.000000
782.332092	551.000000
782.368591	529.000000
782.404968	526.000000
782.441467	515.000000
782.477905	513.000000
782.514282	494.000000
782.550781	501.000000
782.587219	481.000000
782.623596	493.000000
782.660095	483.000000
782.696472	478.000000
782.732910	470.000000
782.769348	469.000000
782.805786	476.000000
782.842224	477.000000
782.878662	471.000000
782.915039	473.000000
782.951477	481.000000
782.987915	482.000000
783.024292	484.000000
783.060730	493.000000
783.097168	495.000000
783.133545	509.000000
783.169983	518.000000
783.206421	532.000000
783.242798	543.000000
783.279236	564.000000
783.315613	589.000000
783.352051	603.000000
783.388489	625.000000
783.424866	640.000000
783.461304	668.000000
783.497681	704.000000
783.534058	728.000000
783.570496	749.000000
783.606934	780.000000
783.643250	824.000000
783.679687	845.000000
783.716125	855.000000
783.752441	898.000000
783.788879	945.000000
783.825317	962.000000
783.861633	1001.000000
783.898071	1018.000000
783.934448	1054.000000
783.970825	1086.000000
784.007263	1116.000000
784.043579	1158.000000
784.080017	1167.000000
784.116394	1173.000000
784.152710	1172.000000
784.189148	1187.000000
784.225525	1199.000000
784.261902	1194.000000
784.298279	1199.000000
784.334656	1209.000000
784.371033	1169.000000
784.407410	1178.000000
784.443787	1159.000000
784.480164	1174.000000
784.516541	1181.000000
784.552856	1194.000000
784.589233	1176.000000
784.625610	1163.000000
784.661987	1182.000000
784.698364	1196.000000
784.734741	1215.000000
784.771057	1241.000000
784.807434	1227.000000
784.843811	1219.000000
784.880127	1203.000000
784.916504	1240.000000
784.952881	1273.000000
784.989197	1282.000000
785.025574	1295.000000
785.061951	1309.000000
785.098267	1294.000000
785.134644	1313.000000
785.170959	1322.000000
785.207275	1353.000000
785.243652	1388.000000
785.279968	1361.000000
785.316345	1355.000000
785.352722	1319.000000
785.388977	1328.000000
785.425354	1321.000000
785.461731	1309.000000
785.498047	1303.000000
785.534363	1256.000000
785.570679	1243.000000
785.606995	1204.000000
785.643372	1199.000000
785.679687	1199.000000
785.716003	1198.000000
785.752380	1163.000000
785.788635	1164.000000
785.825012	1167.000000
785.861328	1171.000000
785.897644	1191.000000
785.933960	1234.000000
785.970337	1264.000000
786.006592	1284.000000
786.042908	1280.000000
786.079285	1299.000000
786.115540	1324.000000
786.151855	1373.000000
786.188171	1418.000000
786.224487	1438.000000
786.260803	1458.000000
786.297119	1478.000000
786.333435	1483.000000
786.369751	1477.000000
786.406006	1500.000000
786.442322	1494.000000
786.478638	1461.000000
786.514954	1418.000000
786.551270	1395.000000
786.587585	1358.000000
786.623840	1347.000000
786.660156	1326.000000
786.696472	1295.000000
786.732727	1236.000000
786.769043	1251.000000
786.805298	1219.000000
786.841614	1197.000000
786.877930	1234.000000
786.914124	1234.000000
786.950439	1249.000000
786.986755	1262.000000
787.023010	1268.000000
787.059326	1282.000000
787.095642	1289.000000
787.131836	1350.000000
787.168152	1361.000000
787.204468	1392.000000
787.240723	1401.000000
787.276978	1390.000000
787.313293	1413.000000
787.349548	1452.000000
787.385803	1475.000000
787.422058	1473.000000
787.458313	1467.000000
787.494629	1447.000000
787.530823	1435.000000
787.567139	1421.000000
787.603455	1423.000000
787.639648	1419.000000
787.675903	1413.000000
787.712219	1381.000000
787.748413	1356.000000
787.784729	1341.000000
787.820984	1319.000000
787.857178	1316.000000
787.893494	1321.000000
787.929749	1290.000000
787.965942	1305.000000
788.002258	1286.000000
788.038452	1314.000000
788.074707	1325.000000
788.110962	1335.000000
788.147217	1326.000000
788.183472	1341.000000
788.219727	1315.000000
788.255920	1311.000000
788.292175	1309.000000
788.328430	1361.000000
788.364624	1342.000000
788.400879	1347.000000
788.437134	1363.000000
788.473328	1338.000000
788.509583	1332.000000
788.545837	1347.000000
788.582031	1359.000000
788.618286	1361.000000
788.654480	1374.000000
788.690735	1369.000000
788.726990	1381.000000
788.763184	1397.000000
788.799377	1404.000000
788.835632	1429.000000
788.871826	1448.000000
788.908081	1435.000000
788.944336	1422.000000
788.980469	1427.000000
789.016724	1420.000000
789.052979	1443.000000
789.089111	1415.000000
789.125366	1425.000000
789.161621	1398.000000
789.197754	1366.000000
789.234009	1357.000000
789.270142	1344.000000
789.306396	1342.000000
789.342590	1360.000000
789.378784	1340.000000
789.414978	1329.000000
789.451233	1308.000000
789.487366	1303.000000
789.523621	1311.000000
789.559814	1333.000000
789.595947	1338.000000
789.632202	1347.000000
789.668335	1342.000000
789.704529	1349.000000
789.740784	1361.000000
789.776917	1365.000000
789.813110	1397.000000
789.849304	1422.000000
789.885498	1404.000000
789.921692	1380.000000
789.957886	1382.000000
789.994019	1392.000000
790.030212	1401.000000
790.066406	1434.000000
790.102539	1425.000000
790.138733	1422.000000
790.174927	1396.000000
790.211060	1383.000000
790.247253	1399.000000
790.283386	1399.000000
790.319580	1405.000000
790.355774	1376.000000
790.391907	1298.000000
790.428101	1188.000000
790.464294	1047.000000
790.500427	905.000000
790.536621	756.000000
790.572754	614.000000
790.608887	552.000000
790.645081	582.000000
790.681274	735.000000
790.717346	960.000000
790.753540	1178.000000
790.789734	1325.000000
790.825867	1388.000000
790.862000	1386.000000
790.898132	1375.000000
790.934265	1368.000000
790.970459	1361.000000
791.006592	1383.000000
791.042725	1402.000000
791.078918	1375.000000
791.114990	1319.000000
791.151184	1299.000000
791.187317	1311.000000
791.223389	1321.000000
791.259583	1326.000000
791.295715	1350.000000
791.331848	1349.000000
791.367981	1355.000000
791.404114	1346.000000
791.440247	1363.000000
791.476379	1381.000000
791.512451	1401.000000
791.548584	1433.000000
791.584778	1436.000000
791.620850	1413.000000
791.656982	1409.000000
791.693115	1408.000000
791.729187	1432.000000
791.765381	1447.000000
791.801514	1475.000000
791.837585	1452.000000
791.873718	1441.000000
791.909851	1439.000000
791.945923	1469.000000
791.982056	1467.000000
792.018188	1467.000000
792.054260	1489.000000
792.090393	1483.000000
792.126465	1444.000000
792.162598	1451.000000
792.198669	1445.000000
792.234741	1474.000000
792.270874	1457.000000
792.307007	1456.000000
792.343079	1446.000000
792.379150	1435.000000
792.415283	1408.000000
792.451355	1431.000000
792.487488	1432.000000
792.523560	1441.000000
792.559631	1435.000000
792.595764	1394.000000
792.631836	1385.000000
792.667908	1383.000000
792.703979	1382.000000
792.740051	1399.000000
792.776184	1408.000000
792.812256	1395.000000
792.848328	1378.000000
792.884399	1376.000000
792.920471	1400.000000
792.956543	1397.000000
792.992615	1425.000000
793.028748	1408.000000
793.064758	1413.000000
793.100830	1421.000000
793.136963	1424.000000
793.172974	1419.000000
793.209045	1436.000000
793.245178	1431.000000
793.281189	1410.000000
793.317261	1405.000000
793.353271	1375.000000
793.389404	1402.000000
793.425476	1414.000000
793.461487	1404.000000
793.497559	1417.000000
793.533630	1410.000000
793.569641	1407.000000
793.605713	1383.000000
793.641785	1380.000000
793.677795	1382.000000
793.713867	1385.000000
793.749878	1409.000000
793.785950	1398.000000
793.822021	1395.000000
793.858032	1383.000000
793.894104	1383.000000
793.930176	1406.000000
793.966187	1422.000000
794.002258	1410.000000
794.038269	1421.000000
794.074280	1394.000000
794.110352	1400.000000
794.146423	1377.000000
794.182373	1395.000000
794.218445	1418.000000
794.254517	1410.000000
794.290466	1421.000000
794.326538	1389.000000
794.362549	1382.000000
794.398560	1382.000000
794.434631	1369.000000
794.470581	1330.000000
794.506653	1337.000000
794.542664	1318.000000
794.578674	1295.000000
794.614685	1309.000000
794.650757	1312.000000
794.686707	1336.000000
794.722778	1316.000000
794.758789	1343.000000
794.794739	1321.000000
794.830811	1337.000000
794.866821	1338.000000
794.902771	1322.000000
794.938843	1335.000000
794.974792	1365.000000
795.010803	1364.000000
795.046814	1350.000000
795.082825	1343.000000
795.118835	1344.000000
795.154846	1330.000000
795.190796	1341.000000
795.226807	1346.000000
795.262817	1349.000000
795.298767	1322.000000
795.334778	1303.000000
795.370850	1276.000000
795.406799	1290.000000
795.442810	1283.000000
795.478821	1296.000000
795.514709	1293.000000
795.550720	1293.000000
795.586670	1223.000000
795.622681	1236.000000
795.658691	1230.000000
795.694641	1248.000000
795.730652	1249.000000
795.766663	1244.000000
795.802551	1222.000000
795.838562	1233.000000
795.874573	1219.000000
795.910522	1227.000000
795.946472	1212.000000
795.982483	1239.000000
796.018433	1231.000000
796.054382	1225.000000
796.090393	1213.000000
796.126282	1230.000000
796.162292	1232.000000
796.198242	1261.000000
796.234192	1272.000000
796.270203	1241.000000
796.306091	1250.000000
796.342041	1268.000000
796.378052	1262.000000
796.413940	1247.000000
796.449951	1268.000000
796.485901	1259.000000
796.521790	1249.000000
796.557800	1234.000000
796.593689	1239.000000
796.629639	1256.000000
796.665649	1283.000000
796.701599	1275.000000
796.737488	1283.000000
796.773437	1257.000000
796.809387	1255.000000
796.845337	1271.000000
796.881287	1281.000000
796.917175	1275.000000
796.953125	1285.000000
796.989075	1291.000000
797.024963	1267.000000
797.060913	1253.000000
797.096863	1255.000000
797.132751	1268.000000
797.168701	1274.000000
797.204590	1254.000000
797.240540	1233.000000
797.276489	1201.000000
797.312439	1203.000000
797.348328	1204.000000
797.384277	1211.000000
797.420166	1227.000000
797.456055	1235.000000
797.492004	1198.000000
797.527893	1208.000000
797.563843	1197.000000
797.599731	1202.000000
797.635620	1204.000000
797.671570	1236.000000
797.707520	1229.000000
797.743347	1205.000000
797.779297	1202.000000
797.815125	1203.000000
797.851074	1224.000000
797.887024	1228.000000
797.922913	1235.000000
797.958801	1224.000000
797.994690	1201.000000
798.030579	1191.000000
798.066467	1209.000000
798.102356	1209.000000
798.138245	1215.000000
798.174133	1203.000000
798.210083	1201.000000
798.245911	1202.000000
798.281799	1175.000000
798.317749	1171.000000
798.353577	1205.000000
798.389465	1212.000000
798.425293	1194.000000
798.461243	1173.000000
798.497131	1183.000000
798.532959	1167.000000
798.568848	1210.000000
798.604736	1194.000000
798.640564	1194.000000
798.676453	1189.000000
798.712402	1169.000000
798.748230	1155.000000
798.784119	1157.000000
798.820007	1181.000000
798.855835	1171.000000
798.891724	1184.000000
798.927551	1163.000000
798.963379	1153.000000
798.999268	1162.000000
799.035095	1162.000000
799.070984	1169.000000
799.106873	1171.000000
799.142700	1188.000000
799.178528	1158.000000
799.214417	1145.000000
799.250244	1159.000000
799.286133	1138.000000
799.321960	1168.000000
799.357788	1178.000000
799.393677	1161.000000
799.429504	1166.000000
799.465332	1155.000000
799.501221	1142.000000
799.537048	1166.000000
799.572876	1163.000000
799.608704	1150.000000
799.644531	1165.000000
799.680359	1128.000000
799.716248	1154.000000
799.752014	1160.000000
799.787903	1156.000000
799.823730	1166.000000
799.859558	1171.000000
799.895386	1150.000000
799.931213	1123.000000
799.967041	1105.000000
800.002869	1104.000000
800.038696	1139.000000
800.074463	1138.000000
800.110352	1132.000000
800.146179	1092.000000
800.181946	1105.000000
800.217773	1093.000000
800.253540	1107.000000
800.289429	1112.000000
800.325256	1106.000000
800.361023	1089.000000
800.396851	1087.000000
800.432678	1067.000000
800.468445	1060.000000
800.504272	1069.000000
800.540100	1085.000000
800.575867	1075.000000
800.611694	1083.000000
800.647461	1056.000000
800.683289	1040.000000
800.719116	1049.000000
800.754883	1053.000000
800.790649	1041.000000
800.826477	1031.000000
800.862244	1056.000000
800.898071	1022.000000
800.933838	1009.000000
800.969604	1023.000000
801.005432	1023.000000
801.041199	1045.000000
801.076965	1036.000000
801.112793	1013.000000
801.148560	999.000000
801.184326	997.000000
801.220154	988.000000
801.255859	977.000000
801.291687	989.000000
801.327454	979.000000
801.363281	974.000000
801.398987	966.000000
801.434814	962.000000
801.470520	970.000000
801.506287	970.000000
801.542114	962.000000
801.577820	956.000000
801.613647	949.000000
801.649414	943.000000
801.685120	959.000000
801.720886	972.000000
801.756714	946.000000
801.792419	947.000000
801.828186	942.000000
801.863892	950.000000
801.899719	933.000000
801.935486	940.000000
801.971252	939.000000
802.006958	948.000000
802.042725	935.000000
802.078430	930.000000
802.114197	916.000000
802.149963	946.000000
802.185669	926.000000
802.221436	939.000000
802.257202	929.000000
802.292908	926.000000
802.328674	924.000000
802.364441	921.000000
802.400146	914.000000
802.435913	924.000000
802.471558	918.000000
802.507324	917.000000
802.543091	911.000000
802.578796	922.000000
802.614502	908.000000
802.650269	913.000000
802.685974	915.000000
802.721741	923.000000
802.757446	917.000000
802.793152	904.000000
802.828918	910.000000
802.864624	903.000000
802.900330	902.000000
802.936035	905.000000
802.971802	890.000000
803.007446	911.000000
803.043213	878.000000
803.078857	891.000000
803.114624	871.000000
803.150330	865.000000
803.185974	861.000000
803.221741	863.000000
803.257446	877.000000
803.293152	875.000000
803.328857	871.000000
803.364563	861.000000
803.400208	852.000000
803.435974	863.000000
803.471680	856.000000
803.507324	853.000000
803.543030	850.000000
803.578735	850.000000
803.614441	837.000000
803.650146	847.000000
803.685791	831.000000
803.721497	834.000000
803.757202	828.000000
803.792847	828.000000
803.828552	827.000000
803.864258	809.000000
803.899902	808.000000
803.935608	802.000000
803.971313	804.000000
804.006958	795.000000
804.042664	793.000000
804.078308	798.000000
804.113953	793.000000
804.149658	797.000000
804.185364	794.000000
804.221008	805.000000
804.256714	799.000000
804.292297	780.000000
804.328003	772.000000
804.363708	767.000000
804.399292	782.000000
804.434998	774.000000
804.470703	764.000000
804.506287	779.000000
804.541992	763.000000
804.577637	771.000000
804.613281	761.000000
804.648926	753.000000
804.684570	753.000000
804.720215	743.000000
804.755920	756.000000
804.791565	744.000000
804.827209	752.000000
804.862854	738.000000
804.898437	745.000000
804.934143	748.000000
804.969788	751.000000
805.005371	751.000000
805.041077	744.000000
805.076721	746.000000
805.112305	739.000000
805.147949	751.000000
805.183655	742.000000
805.219238	741.000000
805.254883	740.000000
805.290466	736.000000
805.326111	735.000000
805.361755	734.000000
805.397400	743.000000
805.432983	752.000000
805.468628	733.000000
805.504211	740.000000
805.539856	725.000000
805.575500	732.000000
805.611084	724.000000
805.646729	718.000000
805.682373	729.000000
805.717957	732.000000
805.753601	734.000000
805.789246	721.000000
805.824768	733.000000
805.860413	738.000000
805.895996	721.000000
805.931641	716.000000
805.967224	723.000000
806.002869	712.000000
806.038452	709.000000
806.074036	711.000000
806.109619	701.000000
806.145264	694.000000
806.180847	707.000000
806.216431	712.000000
806.252014	688.000000
806.287659	699.000000
806.323181	712.000000
806.358826	700.000000
806.394409	685.000000
806.429993	679.000000
806.465576	681.000000
806.501160	671.000000
806.536743	663.000000
806.572327	673.000000
806.607910	676.000000
806.643494	671.000000
806.679077	660.000000
806.714661	675.000000
806.750244	656.000000
806.785828	651.000000
806.821350	642.000000
806.856934	666.000000
806.892517	651.000000
806.928101	643.000000
806.963684	639.000000
806.999268	661.000000
807.034790	642.000000
807.070374	648.000000
807.105896	629.000000
807.141479	635.000000
807.177063	640.000000
807.212585	618.000000
807.248169	629.000000
807.283752	630.000000
807.319275	624.000000
807.354858	634.000000
807.390381	630.000000
807.425903	623.000000
807.461487	618.000000
807.497070	612.000000
807.532593	611.000000
807.568115	598.000000
807.603699	601.000000
807.639221	585.000000
807.674744	589.000000
807.710266	600.000000
807.745850	601.000000
807.781372	592.000000
807.816895	598.000000
807.852417	610.000000
807.888000	610.000000
807.923523	592.000000
807.959045	593.000000
807.994629	576.000000
808.030090	581.000000
808.065613	589.000000
808.101135	588.000000
808.136658	577.000000
808.172241	573.000000
808.207764	572.000000
808.243225	580.000000
808.278809	567.000000
808.314270	582.000000
808.349792	572.000000
808.385315	569.000000
808.420837	570.000000
808.456360	575.000000
808.491882	571.000000
808.527344	575.000000
808.562866	577.000000
808.598389	577.000000
808.633850	564.000000
808.669434	566.000000
808.704895	568.000000
808.740417	562.000000
808.775940	556.000000
808.811462	552.000000
808.846924	546.000000
808.882385	546.000000
808.917847	537.000000
808.953369	541.000000
808.988892	535.000000
809.024353	544.000000
809.059875	553.000000
809.095398	539.000000
809.130798	536.000000
809.166321	523.000000
809.201843	527.000000
809.237305	528.000000
809.272766	535.000000
809.308228	522.000000
809.343750	514.000000
809.379211	514.000000
809.414734	525.000000
809.450134	532.000000
809.485657	515.000000
809.521118	518.000000
809.556580	517.000000
809.592102	510.000000
809.627502	509.000000
809.663025	497.000000
809.698486	504.000000
809.733887	492.000000
809.769409	496.000000
809.804871	490.000000
809.840271	496.000000
809.875793	491.000000
809.911194	494.000000
809.946655	490.000000
809.982178	482.000000
810.017639	486.000000
810.053040	479.000000
810.088501	482.000000
810.123901	491.000000
810.159424	472.000000
810.194885	477.000000
810.230286	481.000000
810.265747	480.000000
810.301208	470.000000
810.336609	475.000000
810.372070	461.000000
810.407532	467.000000
810.442932	469.000000
810.478394	470.000000
810.513794	470.000000
810.549255	463.000000
810.584717	468.000000
810.620117	453.000000
810.655518	465.000000
810.690979	468.000000
810.726379	462.000000
810.761841	460.000000
810.797302	461.000000
810.832642	452.000000
810.868103	461.000000
810.903564	457.000000
810.938904	455.000000
810.974365	448.000000
811.009827	465.000000
811.045166	444.000000
811.080627	443.000000
811.115967	446.000000
811.151428	451.000000
811.186829	437.000000
811.222229	445.000000
811.257629	430.000000
811.293091	448.000000
811.328430	446.000000
811.363892	437.000000
811.399292	433.000000
811.434631	435.000000
811.470093	428.000000
811.505493	431.000000
811.540833	433.000000
811.576294	431.000000
811.611694	428.000000
811.647034	428.000000
811.682434	426.000000
811.717773	433.000000
811.753235	430.000000
811.788635	427.000000
811.823975	430.000000
811.859375	436.000000
811.894775	419.000000
811.930115	418.000000
811.965515	425.000000
812.000916	426.000000
812.036255	416.000000
812.071655	428.000000
812.106995	415.000000
812.142395	421.000000
812.177795	426.000000
812.213196	419.000000
812.248474	414.000000
812.283875	410.000000
812.319214	413.000000
812.354614	411.000000
812.390015	408.000000
812.425293	415.000000
812.460693	416.000000
812.496094	403.000000
812.531433	397.000000
812.566772	399.000000
812.602173	406.000000
812.637451	407.000000
812.672852	402.000000
812.708191	402.000000
812.743530	387.000000
812.778931	384.000000
812.814270	388.000000
812.849609	395.000000
812.884949	385.000000
812.920227	379.000000
812.955627	394.000000
812.990967	397.000000
813.026306	385.000000
813.061646	377.000000
813.096985	376.000000
813.132324	369.000000
813.167664	364.000000
813.203003	373.000000
813.238281	364.000000
813.273682	369.000000
813.308960	359.000000
813.344299	365.000000
813.379639	370.000000
813.414978	358.000000
813.450256	357.000000
813.485596	357.000000
813.520874	349.000000
813.556213	355.000000
813.591614	362.000000
813.626831	352.000000
813.662170	359.000000
813.697510	359.000000
813.732788	353.000000
813.768127	351.000000
813.803467	353.000000
813.838745	344.000000
813.874084	350.000000
813.909363	352.000000
813.944641	359.000000
813.979980	342.000000
814.015320	347.000000
814.050598	345.000000
814.085876	350.000000
814.121155	338.000000
814.156494	344.000000
814.191772	346.000000
814.227051	335.000000
814.262390	340.000000
814.297668	348.000000
814.332947	344.000000
814.368225	342.000000
814.403564	339.000000
814.438782	333.000000
814.474121	335.000000
814.509338	334.000000
814.544617	347.000000
814.579956	339.000000
814.615173	348.000000
814.650513	343.000000
814.685791	333.000000
814.721008	329.000000
814.756348	334.000000
814.791626	330.000000
814.826843	323.000000
814.862122	324.000000
814.897400	329.000000
814.932678	327.000000
814.967957	324.000000
815.003235	320.000000
815.038452	323.000000
815.073730	317.000000
815.108948	331.000000
815.144226	323.000000
815.179504	323.000000
815.214722	313.000000
815.250000	318.000000
815.285278	319.000000
815.320496	316.000000
815.355774	317.000000
815.391052	316.000000
815.426270	316.000000
815.461487	312.000000
815.496765	305.000000
815.531982	300.000000
815.567261	300.000000
815.602539	313.000000
815.637695	305.000000
815.672974	304.000000
815.708191	305.000000
815.743408	316.000000
815.778687	305.000000
815.813904	312.000000
815.849121	297.000000
815.884399	299.000000
815.919556	296.000000
815.954834	297.000000
815.990051	304.000000
816.025269	301.000000
816.060486	299.000000
816.095703	292.000000
816.130920	296.000000
816.166199	296.000000
816.201416	303.000000
816.236572	298.000000
816.271851	291.000000
816.307007	293.000000
816.342224	283.000000
816.377441	293.000000
816.412659	280.000000
816.447876	289.000000
816.483093	287.000000
816.518250	288.000000
816.553467	282.000000
816.588745	289.000000
816.623901	285.000000
816.659119	273.000000
816.694275	283.000000
816.729492	277.000000
816.764709	319.000000
816.799927	275.000000
816.835083	281.000000
816.870300	274.000000
816.905457	282.000000
816.940674	278.000000
816.975830	279.000000
817.010986	269.000000
817.046204	275.000000
817.081421	264.000000
817.116577	269.000000
817.151733	275.000000
817.186951	273.000000
817.222107	267.000000
817.257324	285.000000
817.292419	268.000000
817.327637	268.000000
817.362854	275.000000
817.398010	265.000000
817.433167	267.000000
817.468323	270.000000
817.503479	266.000000
817.538635	277.000000
817.573853	270.000000
817.608948	266.000000
817.644165	265.000000
817.679321	264.000000
817.714478	262.000000
817.749634	267.000000
817.784790	276.000000
817.819946	267.000000
817.855103	252.000000
817.890198	267.000000
817.925415	252.000000
817.960571	266.000000
817.995667	261.000000
818.030823	261.000000
818.066040	259.000000
818.101135	266.000000
818.136292	259.000000
818.171448	254.000000
818.206543	258.000000
818.241699	265.000000
818.276855	263.000000
818.311951	260.000000
818.347107	251.000000
818.382263	265.000000
818.417358	271.000000
818.452515	262.000000
818.487610	262.000000
818.522766	252.000000
818.557922	260.000000
818.593018	259.000000
818.628113	259.000000
818.663269	250.000000
818.698364	256.000000
818.733521	256.000000
818.768677	257.000000
818.803711	249.000000
818.838867	252.000000
818.874023	249.000000
818.909058	252.000000
818.944214	248.000000
818.979370	258.000000
819.014404	250.000000
819.049561	247.000000
819.084595	241.000000
819.119751	245.000000
819.154846	248.000000
819.189941	249.000000
819.225037	247.000000
819.260193	238.000000
819.295227	239.000000
819.330322	237.000000
819.365479	234.000000
819.400513	264.000000
819.435608	229.000000
819.470764	232.000000
819.505798	233.000000
819.540894	237.000000
819.575989	237.000000
819.611084	243.000000
819.646179	245.000000
819.681213	242.000000
819.716309	236.000000
819.751404	237.000000
819.786438	240.000000
819.821533	235.000000
819.856628	234.000000
819.891663	240.000000
819.926758	242.000000
819.961853	239.000000
819.996887	225.000000
820.031982	237.000000
820.067017	236.000000
820.102112	262.000000
820.137207	231.000000
820.172302	247.000000
820.207275	233.000000
820.242371	228.000000
820.277405	231.000000
820.312500	231.000000
820.347534	233.000000
820.382568	238.000000
820.417664	231.000000
820.452759	229.000000
820.487732	228.000000
820.522827	231.000000
820.557861	224.000000
820.592896	226.000000
820.627930	229.000000
820.662964	222.000000
820.698059	230.000000
820.733093	224.000000
820.768127	228.000000
820.803162	225.000000
820.838196	223.000000
820.873230	220.000000
820.908264	223.000000
820.943298	218.000000
820.978333	229.000000
821.013367	226.000000
821.048401	227.000000
821.083435	219.000000
821.118469	217.000000
821.153503	226.000000
821.188477	223.000000
821.223511	218.000000
821.258484	226.000000
821.293579	221.000000
821.328613	218.000000
821.363647	220.000000
821.398621	213.000000
821.433655	216.000000
821.468628	231.000000
821.503662	214.000000
821.538696	225.000000
821.573669	220.000000
821.608704	220.000000
821.643677	218.000000
821.678650	225.000000
821.713684	222.000000
821.748718	217.000000
821.783691	217.000000
821.818726	216.000000
821.853638	221.000000
821.888672	214.000000
821.923706	219.000000
821.958618	215.000000
821.993652	212.000000
822.028687	224.000000
822.063599	223.000000
822.098633	214.000000
822.133667	212.000000
822.168579	216.000000
822.203613	217.000000
822.238586	207.000000
822.273560	221.000000
822.308533	210.000000
822.343567	212.000000
822.378479	215.000000
822.413452	213.000000
822.448425	208.000000
822.483398	216.000000
822.518372	212.000000
822.553345	211.000000
822.588318	219.000000
822.623291	213.000000
822.658203	207.000000
822.693237	214.000000
822.728210	203.000000
822.763123	210.000000
822.798096	204.000000
822.833069	206.000000
822.867981	203.000000
822.902954	208.000000
822.937927	212.000000
822.972900	217.000000
823.007874	196.000000
823.042725	211.000000
823.077698	215.000000
823.112671	202.000000
823.147583	201.000000
823.182556	206.000000
823.217529	213.000000
823.252441	205.000000
823.287415	212.000000
823.322388	210.000000
823.357239	203.000000
823.392212	211.000000
823.427185	214.000000
823.462097	203.000000
823.497009	207.000000
823.531982	201.000000
823.566895	207.000000
823.601807	203.000000
823.636719	203.000000
823.671631	205.000000
823.706604	204.000000
823.741455	205.000000
823.776428	200.000000
823.811340	209.000000
823.846252	211.000000
823.881165	206.000000
823.916138	206.000000
823.950989	210.000000
823.985901	201.000000
824.020813	201.000000
824.055725	206.000000
824.090637	197.000000
824.125610	200.000000
824.160461	203.000000
824.195374	206.000000
824.230225	201.000000
824.265198	195.000000
824.300110	194.000000
824.334961	213.000000
824.369873	192.000000
824.404785	203.000000
824.439636	204.000000
824.474548	195.000000
824.509460	191.000000
824.544312	204.000000
824.579224	197.000000
824.614075	201.000000
824.648987	196.000000
824.683899	195.000000
824.718811	196.000000
824.753662	206.000000
824.788574	206.000000
824.823364	204.000000
824.858276	192.000000
824.893188	205.000000
824.928040	204.000000
824.962952	200.000000
824.997803	202.000000
825.032654	200.000000
825.067566	199.000000
825.102417	198.000000
825.137268	195.000000
825.172119	198.000000
825.206970	197.000000
825.241882	197.000000
825.276733	192.000000
825.311646	198.000000
825.346436	194.000000
825.381348	191.000000
825.416138	198.000000
825.450989	188.000000
825.485901	187.000000
825.520691	191.000000
825.555542	193.000000
825.590454	193.000000
825.625244	191.000000
825.660095	205.000000
825.695007	203.000000
825.729797	195.000000
825.764648	194.000000
825.799438	190.000000
825.834290	194.000000
825.869202	188.000000
825.903992	197.000000
825.938843	191.000000
825.973694	191.000000
826.008484	200.000000
826.043335	193.000000
826.078186	185.000000
826.112976	201.000000
826.147827	197.000000
826.182678	203.000000
826.217468	182.000000
826.252319	198.000000
826.287109	186.000000
826.321899	199.000000
826.356750	190.000000
826.391541	191.000000
826.426392	192.000000
826.461182	194.000000
826.495972	186.000000
826.530823	182.000000
826.565613	193.000000
826.600403	187.000000
826.635254	191.000000
826.670044	182.000000
826.704834	183.000000
826.739685	189.000000
826.774475	194.000000
826.809265	193.000000
826.844055	185.000000
826.878906	199.000000
826.913635	196.000000
826.948425	195.000000
826.983215	194.000000
827.018005	197.000000
827.052856	185.000000
827.087585	200.000000
827.122375	185.000000
827.157227	191.000000
827.191956	205.000000
827.226746	185.000000
827.261536	194.000000
827.296265	182.000000
827.331116	187.000000
827.365906	190.000000
827.400635	187.000000
827.435425	182.000000
827.470215	197.000000
827.504944	187.000000
827.539734	197.000000
827.574463	188.000000
827.609253	198.000000
827.644043	187.000000
827.678772	192.000000
827.713562	186.000000
827.748352	190.000000
827.783081	179.000000
827.817871	189.000000
827.852600	179.000000
827.887329	187.000000
827.922119	178.000000
827.956848	194.000000
827.991638	198.000000
828.026367	188.000000
828.061157	183.000000
828.095886	188.000000
828.130615	202.000000
828.165344	178.000000
828.200073	187.000000
828.234863	186.000000
828.269592	186.000000
828.304321	187.000000
828.339111	186.000000
828.373779	184.000000
828.408569	193.000000
828.443298	195.000000
828.477966	183.000000
828.512756	186.000000
828.547424	181.000000
828.582214	187.000000
828.616943	184.000000
828.651672	187.000000
828.686340	190.000000
828.721130	186.000000
828.755798	185.000000
828.790527	188.000000
828.825256	186.000000
828.859924	192.000000
828.894714	193.000000
828.929443	193.000000
828.964111	180.000000
828.998840	190.000000
829.033569	181.000000
829.068237	188.000000
829.102966	186.000000
829.137634	191.000000
829.172363	188.000000
829.207092	188.000000
829.241821	181.000000
829.276489	179.000000
829.311157	189.000000
829.345825	184.000000
829.380554	195.000000
829.415283	182.000000
829.449951	177.000000
829.484619	190.000000
829.519348	191.000000
829.554016	182.000000
829.588745	185.000000
829.623413	175.000000
829.658081	194.000000
829.692749	179.000000
829.727417	191.000000
829.762146	184.000000
829.796814	180.000000
829.831482	181.000000
829.866150	186.000000
829.900879	179.000000
829.935486	186.000000
829.970154	178.000000
830.004883	195.000000
830.039490	185.000000
830.074219	178.000000
830.108887	185.000000
830.143494	185.000000
830.178223	175.000000
830.212891	181.000000
830.247498	184.000000
830.282166	189.000000
830.316772	192.000000
830.351501	185.000000
830.386169	183.000000
830.420776	184.000000
830.455444	188.000000
830.490112	179.000000
830.524719	177.000000
830.559387	187.000000
830.594055	185.000000
830.628662	190.000000
830.663330	189.000000
830.697998	186.000000
830.732605	182.000000
830.767273	189.000000
830.801941	183.000000
830.836487	193.000000
830.871155	188.000000
830.905762	187.000000
830.940430	177.000000
830.975098	179.000000
831.009644	186.000000
831.044312	191.000000
831.078979	185.000000
831.113525	174.000000
831.148193	184.000000
831.182861	180.000000
831.217407	190.000000
831.252075	196.000000
831.286621	185.000000
831.321289	179.000000
831.355896	188.000000
831.390564	187.000000
831.425110	186.000000
831.459778	189.000000
831.494324	197.000000
831.528931	184.000000
831.563599	189.000000
831.598145	171.000000
831.632751	183.000000
831.667419	183.000000
831.701965	186.000000
831.736572	183.000000
831.771179	175.000000
831.805786	178.000000
831.840393	187.000000
831.874939	176.000000
831.909546	188.000000
831.944153	172.000000
831.978760	180.000000
832.013306	178.000000
832.047913	190.000000
832.082458	196.000000
832.117065	182.000000
832.151672	189.000000
832.186218	186.000000
832.220825	188.000000
832.255432	174.000000
832.289978	178.000000
832.324585	186.000000
832.359192	186.000000
832.393677	185.000000
832.428284	186.000000
832.462830	183.000000
832.497437	185.000000
832.531982	189.000000
832.566589	182.000000
832.601135	188.000000
832.635681	179.000000
832.670227	183.000000
832.704773	193.000000
832.739380	189.000000
832.773926	181.000000
832.808472	180.000000
832.843079	189.000000
832.877563	184.000000
832.912170	181.000000
832.946716	174.000000
832.981201	188.000000
833.015808	189.000000
833.050293	182.000000
833.084839	173.000000
833.119446	186.000000
833.153992	185.000000
833.188477	183.000000
833.223022	177.000000
833.257568	186.000000
833.292114	188.000000
833.326660	198.000000
833.361145	178.000000
833.395691	175.000000
833.430237	180.000000
833.464783	188.000000
833.499329	176.000000
833.533875	177.000000
833.568359	186.000000
833.602905	191.000000
833.637390	187.000000
833.671875	183.000000
833.706421	181.000000
833.740906	181.000000
833.775452	175.000000
833.809998	181.000000
833.844482	189.000000
833.879028	183.000000
833.913513	181.000000
833.947998	191.000000
833.982544	182.000000
834.017090	180.000000
834.051514	173.000000
834.086060	191.000000
834.120544	180.000000
834.155029	188.000000
834.189575	179.000000
834.223999	184.000000
834.258545	184.000000
834.293030	185.000000
834.327515	186.000000
834.362000	182.000000
834.396545	190.000000
834.430969	185.000000
834.465454	188.000000
834.500000	177.000000
834.534424	189.000000
834.568970	176.000000
834.603455	178.000000
834.637878	177.000000
834.672363	186.000000
834.706909	182.000000
834.741333	185.000000
834.775818	175.000000
834.810242	180.000000
834.844727	183.000000
834.879211	185.000000
834.913635	181.000000
834.948181	183.000000
834.982666	182.000000
835.017090	181.000000
835.051575	184.000000
835.086060	182.000000
835.120483	187.000000
835.154907	189.000000
835.189331	181.000000
835.223816	186.000000
835.258301	175.000000
835.292786	182.000000
835.327209	190.000000
835.361694	179.000000
835.396057	177.000000
835.430542	185.000000
835.465027	181.000000
835.499390	180.000000
835.533875	205.000000
835.568359	181.000000
835.602722	176.000000
835.637207	184.000000
835.671692	174.000000
835.706055	201.000000
835.740540	185.000000
835.774902	184.000000
835.809387	183.000000
835.843811	177.000000
835.878235	187.000000
835.912659	178.000000
835.947083	185.000000
835.981506	181.000000
836.015930	176.000000
836.050354	192.000000
836.084778	191.000000
836.119202	190.000000
836.153625	196.000000
836.187988	179.000000
836.222473	185.000000
836.256897	181.000000
836.291260	181.000000
836.325684	185.000000
836.360046	180.000000
836.394470	183.000000
836.428894	194.000000
836.463318	181.000000
836.497681	187.000000
836.532104	187.000000
836.566467	187.000000
836.600891	179.000000
836.635315	191.000000
836.669678	186.000000
836.704102	186.000000
836.738525	180.000000
836.772888	175.000000
836.807251	173.000000
836.841675	187.000000
836.876038	182.000000
836.910461	178.000000
836.944763	183.000000
836.979187	179.000000
837.013611	187.000000
837.047974	177.000000
837.082336	194.000000
837.116699	189.000000
837.151062	182.000000
837.185486	178.000000
837.219849	179.000000
837.254211	188.000000
837.288574	183.000000
837.322937	182.000000
837.357300	175.000000
837.391663	198.000000
837.426086	188.000000
837.460388	182.000000
837.494751	187.000000
837.529114	181.000000
837.563477	191.000000
837.597839	187.000000
837.632141	181.000000
837.666565	185.000000
837.700928	191.000000
837.735229	191.000000
837.769592	190.000000
837.803955	190.000000
837.838257	181.000000
837.872620	179.000000
837.906982	191.000000
837.941284	182.000000
837.975647	187.000000
838.010010	191.000000
838.044312	181.000000
838.078674	181.000000
838.112976	184.000000
838.147339	185.000000
838.181702	181.000000
838.216003	191.000000
838.250366	186.000000
838.284668	187.000000
838.318970	181.000000
838.353333	182.000000
838.387634	186.000000
838.421936	181.000000
838.456299	185.000000
838.490601	191.000000
838.524902	191.000000
838.559265	183.000000
838.593567	190.000000
838.627869	177.000000
838.662170	189.000000
838.696472	173.000000
838.730774	181.000000
838.765137	182.000000
838.799377	176.000000
838.833740	184.000000
838.868042	189.000000
838.902283	176.000000
838.936646	193.000000
838.970947	188.000000
839.005188	190.000000
839.039551	177.000000
839.073792	190.000000
839.108093	182.000000
839.142395	198.000000
839.176697	176.000000
839.210937	189.000000
839.245300	196.000000
839.279541	179.000000
839.313843	186.000000
839.348145	187.000000
839.382385	185.000000
839.416687	193.000000
839.450989	189.000000
839.485229	185.000000
839.519531	181.000000
839.553833	191.000000
839.588013	184.000000
839.622314	188.000000
839.656555	188.000000
839.690857	184.000000
839.725159	179.000000
839.759460	187.000000
839.793640	180.000000
839.827942	185.000000
839.862183	181.000000
839.896423	184.000000
839.930725	197.000000
839.964966	187.000000
839.999207	190.000000
840.033508	187.000000
840.067688	183.000000
840.101990	188.000000
840.136230	182.000000
840.170471	192.000000
840.204712	178.000000
840.238953	180.000000
840.273193	187.000000
840.307434	183.000000
840.341736	180.000000
840.375916	181.000000
840.410217	185.000000
840.444397	185.000000
840.478638	190.000000
840.512878	185.000000
840.547119	184.000000
840.581360	186.000000
840.615601	191.000000
840.649780	194.000000
840.684021	185.000000
840.718262	187.000000
840.752441	193.000000
840.786682	186.000000
840.820862	186.000000
840.855103	195.000000
840.889343	187.000000
840.923584	185.000000
840.957764	186.000000
840.992004	187.000000
841.026184	196.000000
841.060425	187.000000
841.094666	181.000000
841.128845	187.000000
841.163025	187.000000
841.197266	189.000000
841.231445	185.000000
841.265686	187.000000
841.299866	181.000000
841.334045	193.000000
841.368286	187.000000
841.402405	196.000000
841.436646	192.000000
841.470825	183.000000
841.505005	183.000000
841.539185	181.000000
841.573425	179.000000
841.607544	185.000000
841.641785	186.000000
841.675964	183.000000
841.710144	184.000000
841.744324	181.000000
841.778503	184.000000
841.812683	185.000000
841.846863	192.000000
841.881042	191.000000
841.915222	175.000000
841.949402	201.000000
841.983521	173.000000
842.017700	184.000000
842.051880	181.000000
842.086060	188.000000
842.120239	183.000000
842.154419	181.000000
842.188538	187.000000
842.222717	184.000000
842.256897	189.000000
842.291016	185.000000
842.325195	184.000000
842.359375	194.000000
842.393494	190.000000
842.427673	185.000000
842.461853	182.000000
842.495911	194.000000
842.530090	190.000000
842.564209	181.000000
842.598389	185.000000
842.632568	187.000000
842.666626	183.000000
842.700806	181.000000
842.734985	183.000000
842.769043	182.000000
842.803223	181.000000
842.837402	186.000000
842.871460	180.000000
842.905640	191.000000
842.939697	181.000000
842.973877	186.000000
843.007996	195.000000
843.042175	197.000000
843.076233	183.000000
843.110413	184.000000
843.144470	197.000000
843.178589	185.000000
843.212769	189.000000
843.246826	188.000000
843.280945	179.000000
843.315125	183.000000
843.349182	183.000000
843.383301	187.000000
843.417419	199.000000
843.451538	187.000000
843.485657	183.000000
843.519714	181.000000
843.553833	190.000000
843.587952	182.000000
843.622070	180.000000
843.656128	186.000000
843.690247	184.000000
843.724304	183.000000
843.758423	186.000000
843.792542	179.000000
843.826599	183.000000
843.860718	185.000000
843.894836	179.000000
843.928894	184.000000
843.963013	186.000000
843.997070	176.000000
844.031128	177.000000
844.065247	188.000000
844.099304	188.000000
844.133362	183.000000
844.167480	190.000000
844.201599	190.000000
844.235596	192.000000
844.269714	187.000000
844.303711	187.000000
844.337830	176.000000
844.371948	191.000000
844.405945	180.000000
844.440063	181.000000
844.474121	198.000000
844.508118	183.000000
844.542236	186.000000
844.576294	187.000000
844.610352	176.000000
844.644409	183.000000
844.678406	178.000000
844.712524	191.000000
844.746582	193.000000
844.780640	187.000000
844.814636	181.000000
844.848755	196.000000
844.882751	190.000000
844.916809	190.000000
844.950867	188.000000
844.984863	193.000000
845.018921	184.000000
845.052979	183.000000
845.086975	186.000000
845.121033	177.000000
845.155090	184.000000
845.189087	188.000000
845.223145	184.000000
845.257141	184.000000
845.291199	188.000000
845.325256	195.000000
845.359253	186.000000
845.393250	194.000000
845.427307	184.000000
845.461304	185.000000
845.495361	189.000000
845.529358	197.000000
845.563354	184.000000
845.597412	180.000000
845.631409	194.000000
845.665405	194.000000
845.699463	194.000000
845.733459	181.000000
845.767456	191.000000
845.801453	182.000000
845.835449	190.000000
845.869446	186.000000
845.903503	192.000000
845.937439	178.000000
845.971497	196.000000
846.005493	178.000000
846.039429	190.000000
846.073486	195.000000
846.107483	183.000000
846.141418	183.000000
846.175476	184.000000
846.209473	187.000000
846.243408	183.000000
846.277405	186.000000
846.311401	185.000000
846.345337	185.000000
846.379395	192.000000
846.413330	183.000000
846.447327	192.000000
846.481323	183.000000
846.515259	181.000000
846.549255	183.000000
846.583252	189.000000
846.617187	185.000000
846.651184	185.000000
846.685120	185.000000
846.719055	192.000000
846.753052	191.000000
846.786987	192.000000
846.820984	181.000000
846.854980	189.000000
846.888916	180.000000
846.922852	187.000000
846.956848	194.000000
846.990723	180.000000
847.024719	192.000000
847.058716	183.000000
847.092590	191.000000
847.126587	186.000000
847.160522	183.000000
847.194458	190.000000
847.228455	184.000000
847.262390	177.000000
847.296265	187.000000
847.330261	191.000000
847.364136	183.000000
847.398132	183.000000
847.432068	183.000000
847.466003	185.000000
847.499939	184.000000
847.533875	185.000000
847.567749	181.000000
847.601746	180.000000
847.635681	188.000000
847.669556	173.000000
847.703491	193.000000
847.737427	203.000000
847.771301	181.000000
847.805237	188.000000
847.839233	189.000000
847.873108	184.000000
847.907043	188.000000
847.940918	192.000000
847.974854	188.000000
848.008789	189.000000
848.042664	185.000000
848.076538	186.000000
848.110474	188.000000
848.144348	189.000000
848.178284	182.000000
848.212219	189.000000
848.246094	183.000000
848.279968	189.000000
848.313904	188.000000
848.347778	190.000000
848.381653	186.000000
848.415588	181.000000
848.449463	184.000000
848.483337	186.000000
848.517212	190.000000
848.551086	189.000000
848.585022	178.000000
848.618835	199.000000
848.652771	183.000000
848.686646	178.000000
848.720520	194.000000
848.754395	188.000000
848.788330	187.000000
848.822144	193.000000
848.856018	182.000000
848.889954	197.000000
848.923767	179.000000
848.957642	186.000000
848.991577	185.000000
849.025391	184.000000
849.059265	180.000000
849.093079	183.000000
849.126953	177.000000
849.160828	189.000000
849.194641	180.000000
849.228577	187.000000
849.262451	185.000000
849.296265	187.000000
849.330139	184.000000
849.364014	190.000000
849.397827	188.000000
849.431702	184.000000
849.465515	189.000000
849.499329	176.000000
849.533203	178.000000
849.567078	180.000000
849.600891	184.000000
849.634766	183.000000
849.668518	195.000000
849.702393	184.000000
849.736267	178.000000
849.770020	196.000000
849.803894	182.000000
849.837769	189.000000
849.871521	189.000000
849.905396	190.000000
849.939270	183.000000
849.973022	186.000000
850.006897	184.000000
850.040710	188.000000
850.074524	189.000000
850.108337	181.000000
850.142151	192.000000
850.175964	191.000000
850.209778	186.000000
850.243530	175.000000
850.277405	192.000000
850.311218	187.000000
850.344971	189.000000
850.378845	193.000000
850.412659	184.000000
850.446411	186.000000
850.480225	186.000000
850.514038	188.000000
850.547791	185.000000
850.581665	184.000000
850.615417	187.000000
850.649231	186.000000
850.683044	186.000000
850.716858	183.000000
850.750610	185.000000
850.784424	190.000000
850.818176	186.000000
850.851929	183.000000
850.885742	185.000000
850.919495	181.000000
850.953308	196.000000
850.987122	192.000000
851.020874	180.000000
851.054626	177.000000
851.088440	193.000000
851.122192	185.000000
851.156006	187.000000
851.189697	186.000000
851.223511	181.000000
851.257263	192.000000
851.291077	192.000000
851.324829	179.000000
851.358582	184.000000
851.392334	186.000000
851.426086	185.000000
851.459900	195.000000
851.493591	189.000000
851.527344	183.000000
851.561157	192.000000
851.594849	192.000000
851.628662	186.000000
851.662415	196.000000
851.696106	191.000000
851.729858	187.000000
851.763611	185.000000
851.797363	197.000000
851.831116	183.000000
851.864868	191.000000
851.898560	192.000000
851.932312	180.000000
851.966064	190.000000
851.999817	189.000000
852.033569	183.000000
852.067261	195.000000
852.101013	184.000000
852.134766	186.000000
852.168457	175.000000
852.202209	192.000000
852.235901	181.000000
852.269592	187.000000
852.303345	197.000000
852.337036	192.000000
852.370789	185.000000
852.404541	193.000000
852.438171	180.000000
852.471924	187.000000
852.505676	181.000000
852.539307	191.000000
852.573059	180.000000
852.606812	184.000000
852.640442	177.000000
852.674194	193.000000
852.707886	193.000000
852.741577	195.000000
852.775269	181.000000
852.809021	190.000000
852.842651	189.000000
852.876404	193.000000
852.910034	185.000000
852.943787	195.000000
852.977478	188.000000
853.011108	186.000000
853.044861	177.000000
853.078552	193.000000
853.112183	191.000000
853.145874	189.000000
853.179626	178.000000
853.213257	188.000000
853.246948	185.000000
853.280640	195.000000
853.314270	185.000000
853.347961	191.000000
853.381653	189.000000
853.415283	191.000000
853.448975	184.000000
853.482605	189.000000
853.516296	188.000000
853.549988	178.000000
853.583618	187.000000
853.617310	187.000000
853.651001	189.000000
853.684631	183.000000
853.718323	186.000000
853.751953	192.000000
853.785583	179.000000
853.819275	191.000000
853.852966	187.000000
853.886536	177.000000
853.920227	188.000000
853.953918	186.000000
853.987488	185.000000
854.021179	189.000000
854.054749	197.000000
854.088440	187.000000
854.122131	184.000000
854.155701	186.000000
854.189331	187.000000
854.223022	187.000000
854.256592	189.000000
854.290283	181.000000
854.323914	192.000000
854.357483	188.000000
854.391174	191.000000
854.424744	195.000000
854.458374	189.000000
854.492065	197.000000
854.525696	187.000000
854.559265	192.000000
854.592896	199.000000
854.626465	184.000000
854.660095	187.000000
854.693787	185.000000
854.727356	186.000000
854.760986	185.000000
854.794617	189.000000
854.828186	186.000000
854.861816	189.000000
854.895447	188.000000
854.929016	190.000000
854.962585	186.000000
854.996155	197.000000
855.029785	187.000000
855.063416	190.000000
855.097046	193.000000
855.130615	181.000000
855.164185	191.000000
855.197754	187.000000
855.231384	190.000000
855.264954	184.000000
855.298523	189.000000
855.332153	191.000000
855.365723	191.000000
855.399292	183.000000
855.432922	188.000000
855.466492	186.000000
855.500061	185.000000
855.533630	183.000000
855.567200	188.000000
855.600769	191.000000
855.634338	191.000000
855.667969	189.000000
855.701477	184.000000
855.735046	178.000000
855.768616	181.000000
855.802185	188.000000
855.835754	199.000000
855.869324	177.000000
855.902893	188.000000
855.936401	189.000000
855.969971	189.000000
856.003540	176.000000
856.037109	192.000000
856.070618	182.000000
856.104187	181.000000
856.137695	183.000000
856.171265	179.000000
856.204834	186.000000
856.238403	194.000000
856.271912	182.000000
856.305481	188.000000
856.338989	179.000000
856.372559	189.000000
856.406128	187.000000
856.439636	193.000000
856.473145	180.000000
856.506653	193.000000
856.540222	186.000000
856.573792	194.000000
856.607300	193.000000
856.640808	187.000000
856.674377	185.000000
856.707825	217.000000
856.741394	190.000000
856.774902	180.000000
856.808472	181.000000
856.841980	192.000000
856.875488	192.000000
856.908936	180.000000
856.942505	187.000000
856.976013	187.000000
857.009521	184.000000
857.043030	186.000000
857.076477	185.000000
857.110046	192.000000
857.143555	190.000000
857.177063	189.000000
857.210571	185.000000
857.244080	181.000000
857.277527	187.000000
857.311035	185.000000
857.344543	189.000000
857.378052	182.000000
857.411499	190.000000
857.445068	195.000000
857.478516	188.000000
857.512024	178.000000
857.545532	185.000000
857.578979	185.000000
857.612427	189.000000
857.645874	181.000000
857.679382	187.000000
857.712891	189.000000
857.746399	188.000000
857.779846	185.000000
857.813354	192.000000
857.846741	188.000000
857.880249	181.000000
857.913757	184.000000
857.947266	189.000000
857.980652	185.000000
858.014160	183.000000
858.047546	182.000000
858.081055	184.000000
858.114563	196.000000
858.147949	181.000000
858.181458	189.000000
858.214844	186.000000
858.248352	181.000000
858.281799	192.000000
858.315308	195.000000
858.348694	194.000000
858.382141	193.000000
858.415588	190.000000
858.449036	194.000000
858.482483	189.000000
858.515930	188.000000
858.549377	186.000000
858.582825	193.000000
858.616211	192.000000
858.649658	190.000000
858.683105	181.000000
858.716553	188.000000
858.750000	178.000000
858.783386	184.000000
858.816833	179.000000
858.850281	189.000000
858.883728	189.000000
858.917114	189.000000
858.950562	196.000000
858.983948	194.000000
859.017395	192.000000
859.050781	184.000000
859.084167	180.000000
859.117615	181.000000
859.151062	187.000000
859.184448	183.000000
859.217834	183.000000
859.251282	187.000000
859.284668	180.000000
859.318054	177.000000
859.351440	179.000000
859.384888	196.000000
859.418274	173.000000
859.451721	179.000000
859.485046	183.000000
859.518494	190.000000
859.551819	184.000000
859.585266	185.000000
859.618652	187.000000
859.652039	181.000000
859.685425	176.000000
859.718811	181.000000
859.752197	175.000000
859.785583	190.000000
859.819031	193.000000
859.852356	188.000000
859.885742	178.000000
859.919067	187.000000
859.952454	179.000000
859.985901	189.000000
860.019287	186.000000
860.052612	0.000000
860.085999	0.000000
860.119324	0.000000
860.152710	0.000000
860.186096	0.000000
860.219421	0.000000
860.252808	0.000000
860.286133	0.000000
860.319519	0.000000
860.352905	0.000000
860.386292	0.000000
860.419617	0.000000
860.452942	0.000000
860.486267	0.000000
860.519653	0.000000
860.553040	0.000000
860.586365	0.000000
860.619690	0.000000
860.653076	0.000000
860.686340	0.000000
860.719727	0.000000
860.753113	0.000000
860.786377	0.000000
860.819763	0.000000
860.853027	0.000000
860.886414	0.000000
860.919739	0.000000
860.953125	0.000000
860.986389	0.000000
861.019714	0.000000
861.053040	0.000000
861.086365	0.000000
861.119690	0.000000
861.153076	0.000000
861.186340	0.000000
861.219666	0.000000
861.252930	0.000000
861.286316	0.000000
861.319641	0.000000
861.352905	0.000000
861.386230	0.000000
861.419495	0.000000
861.452820	0.000000
861.486145	0.000000
861.519470	0.000000
861.552734	0.000000
861.586060	0.000000
861.619324	0.000000
861.652649	0.000000
861.685974	0.000000
861.719238	0.000000
861.752563	0.000000
861.785828	0.000000
861.819092	0.000000
861.852417	0.000000
861.885742	0.000000
861.918945	0.000000
861.952271	0.000000
861.985535	0.000000
862.018799	0.000000
862.052124	0.000000
862.085449	0.000000
862.118652	0.000000
862.151978	0.000000
862.185181	0.000000
862.218506	0.000000
862.251770	0.000000
862.285034	0.000000
862.318298	0.000000
862.351562	0.000000
862.384827	0.000000
862.418091	0.000000
862.451355	0.000000
862.484619	0.000000
862.517883	0.000000
862.551086	0.000000
862.584351	0.000000
862.617676	0.000000
862.650940	0.000000
862.684143	0.000000
862.717407	0.000000
862.750610	0.000000
862.783875	0.000000
862.817139	0.000000
862.850342	0.000000
862.883606	0.000000
862.916870	0.000000
862.950073	0.000000
862.983337	0.000000
863.016602	0.000000
863.049805	0.000000
863.083069	0.000000
863.116211	0.000000
863.149475	0.000000
863.182739	0.000000
863.216003	0.000000
863.249146	0.000000
863.282410	0.000000
863.315613	0.000000
863.348816	0.000000
863.382080	0.000000
863.415222	0.000000
863.448486	0.000000
863.481689	0.000000
863.514893	0.000000
863.548157	0.000000
863.581360	0.000000
863.614502	0.000000
863.647766	0.000000
863.680908	0.000000
863.714172	0.000000
863.747375	0.000000
863.780579	0.000000
863.813721	0.000000
863.846985	0.000000
863.880127	0.000000
863.913330	0.000000
863.946533	0.000000
863.979675	0.000000
864.012939	0.000000
