Model Number: SPM-001-M   
Serial Number: 10090201
Firmware Version: 004.17.6
Exposure Time: 500000.000000us
Data Taken on: 27-08-2020 10:06:26.469
Wavelength	Amplitude
733.770752	0.000000
733.808716	0.000000
733.846619	0.000000
733.884583	0.000000
733.922546	0.000000
733.960449	0.000000
733.998413	0.000000
734.036377	0.000000
734.074219	0.000000
734.112183	0.000000
734.150085	0.000000
734.188049	0.000000
734.226013	0.000000
734.263916	0.000000
734.301819	0.000000
734.339783	0.000000
734.377686	0.000000
734.415588	0.000000
734.453552	0.000000
734.491455	0.000000
734.529419	0.000000
734.567322	0.000000
734.605225	0.000000
734.643127	0.000000
734.681091	0.000000
734.718994	0.000000
734.756897	0.000000
734.794800	0.000000
734.832703	0.000000
734.870667	0.000000
734.908508	0.000000
734.946472	0.000000
734.984375	0.000000
735.022278	0.000000
735.060181	0.000000
735.098083	0.000000
735.135986	0.000000
735.173889	0.000000
735.211792	0.000000
735.249695	0.000000
735.287598	0.000000
735.325439	0.000000
735.363403	0.000000
735.401306	0.000000
735.439148	0.000000
735.477051	0.000000
735.515015	0.000000
735.552856	0.000000
735.590759	0.000000
735.628662	0.000000
735.666504	0.000000
735.704407	0.000000
735.742310	0.000000
735.780212	0.000000
735.818115	0.000000
735.856018	0.000000
735.893860	0.000000
735.931763	0.000000
735.969604	0.000000
736.007507	0.000000
736.045410	0.000000
736.083252	0.000000
736.121094	0.000000
736.158997	0.000000
736.196838	0.000000
736.234741	0.000000
736.272644	0.000000
736.310486	0.000000
736.348389	0.000000
736.386230	0.000000
736.424072	0.000000
736.461975	0.000000
736.499878	0.000000
736.537720	0.000000
736.575562	0.000000
736.613403	0.000000
736.651306	0.000000
736.689148	0.000000
736.726990	0.000000
736.764893	0.000000
736.802734	0.000000
736.840576	0.000000
736.878418	0.000000
736.916321	0.000000
736.954102	0.000000
736.992004	0.000000
737.029846	0.000000
737.067688	0.000000
737.105530	0.000000
737.143372	0.000000
737.181213	0.000000
737.219116	0.000000
737.256897	0.000000
737.294739	0.000000
737.332642	0.000000
737.370422	0.000000
737.408325	0.000000
737.446167	0.000000
737.483948	0.000000
737.521790	0.000000
737.559692	0.000000
737.597473	0.000000
737.635315	0.000000
737.673157	0.000000
737.710999	0.000000
737.748840	0.000000
737.786621	0.000000
737.824463	0.000000
737.862305	0.000000
737.900085	0.000000
737.937927	0.000000
737.975769	0.000000
738.013550	0.000000
738.051392	0.000000
738.089233	0.000000
738.127014	0.000000
738.164856	0.000000
738.202698	0.000000
738.240479	0.000000
738.278320	0.000000
738.316162	0.000000
738.353943	0.000000
738.391785	0.000000
738.429565	0.000000
738.467407	0.000000
738.505188	0.000000
738.542969	0.000000
738.580811	0.000000
738.618652	0.000000
738.656372	0.000000
738.694214	0.000000
738.732056	0.000000
738.769836	0.000000
738.807617	0.000000
738.845459	0.000000
738.883240	0.000000
738.921021	0.000000
738.958862	0.000000
738.996582	0.000000
739.034424	0.000000
739.072205	0.000000
739.109985	0.000000
739.147827	0.000000
739.185547	0.000000
739.223389	0.000000
739.261169	0.000000
739.298889	0.000000
739.336731	0.000000
739.374512	0.000000
739.412292	0.000000
739.450073	0.000000
739.487854	0.000000
739.525635	0.000000
739.563416	0.000000
739.601135	0.000000
739.638977	0.000000
739.676758	0.000000
739.714478	0.000000
739.752258	0.000000
739.790100	0.000000
739.827820	0.000000
739.865601	0.000000
739.903381	0.000000
739.941101	0.000000
739.978882	191.000000
740.016724	187.000000
740.054443	191.000000
740.092224	183.000000
740.130005	183.000000
740.167725	184.000000
740.205505	184.000000
740.243225	192.000000
740.281006	185.000000
740.318787	181.000000
740.356506	196.000000
740.394287	189.000000
740.432068	185.000000
740.469727	179.000000
740.507507	189.000000
740.545288	184.000000
740.583008	185.000000
740.620789	184.000000
740.658569	179.000000
740.696228	183.000000
740.734009	192.000000
740.771790	173.000000
740.809509	187.000000
740.847229	179.000000
740.884949	186.000000
740.922729	172.000000
740.960449	186.000000
740.998169	178.000000
741.035950	182.000000
741.073669	185.000000
741.111389	188.000000
741.149170	194.000000
741.186890	198.000000
741.224609	189.000000
741.262329	188.000000
741.300110	194.000000
741.337769	180.000000
741.375549	176.000000
741.413208	183.000000
741.450989	182.000000
741.488708	184.000000
741.526367	180.000000
741.564148	192.000000
741.601868	190.000000
741.639526	183.000000
741.677307	182.000000
741.715027	190.000000
741.752686	178.000000
741.790466	189.000000
741.828186	190.000000
741.865845	179.000000
741.903564	182.000000
741.941345	189.000000
741.979004	178.000000
742.016724	192.000000
742.054382	182.000000
742.092102	186.000000
742.129822	179.000000
742.167480	183.000000
742.205200	181.000000
742.242920	188.000000
742.280640	193.000000
742.318359	183.000000
742.356079	187.000000
742.393738	185.000000
742.431396	180.000000
742.469116	191.000000
742.506775	179.000000
742.544495	187.000000
742.582214	190.000000
742.619873	184.000000
742.657593	193.000000
742.695251	192.000000
742.732971	186.000000
742.770630	181.000000
742.808289	182.000000
742.846008	181.000000
742.883728	187.000000
742.921326	183.000000
742.959045	185.000000
742.996765	182.000000
743.034424	188.000000
743.072083	181.000000
743.109802	185.000000
743.147400	179.000000
743.185120	188.000000
743.222839	181.000000
743.260437	193.000000
743.298157	187.000000
743.335754	175.000000
743.373474	181.000000
743.411133	179.000000
743.448792	180.000000
743.486450	185.000000
743.524170	178.000000
743.561768	183.000000
743.599487	189.000000
743.637146	201.000000
743.674744	184.000000
743.712463	183.000000
743.750122	189.000000
743.787720	187.000000
743.825439	185.000000
743.863037	182.000000
743.900696	180.000000
743.938416	209.000000
743.976013	183.000000
744.013672	193.000000
744.051331	192.000000
744.088928	194.000000
744.126587	192.000000
744.164307	187.000000
744.201904	184.000000
744.239563	187.000000
744.277222	190.000000
744.314819	188.000000
744.352478	191.000000
744.390137	189.000000
744.427734	187.000000
744.465393	178.000000
744.502991	187.000000
744.540649	188.000000
744.578308	186.000000
744.615906	176.000000
744.653564	178.000000
744.691223	183.000000
744.728821	183.000000
744.766418	181.000000
744.804077	186.000000
744.841675	184.000000
744.879333	179.000000
744.916992	182.000000
744.954529	182.000000
744.992187	188.000000
745.029785	183.000000
745.067444	180.000000
745.105042	185.000000
745.142639	182.000000
745.180298	195.000000
745.217896	186.000000
745.255493	183.000000
745.293152	189.000000
745.330750	188.000000
745.368347	186.000000
745.405945	188.000000
745.443604	183.000000
745.481140	188.000000
745.518799	182.000000
745.556396	187.000000
745.593994	183.000000
745.631592	184.000000
745.669189	179.000000
745.706787	188.000000
745.744385	179.000000
745.781982	190.000000
745.819580	183.000000
745.857178	188.000000
745.894775	183.000000
745.932373	188.000000
745.969971	188.000000
746.007568	174.000000
746.045166	192.000000
746.082764	187.000000
746.120300	191.000000
746.157898	185.000000
746.195557	186.000000
746.233093	183.000000
746.270691	189.000000
746.308228	185.000000
746.345825	193.000000
746.383423	188.000000
746.420959	184.000000
746.458557	183.000000
746.496155	186.000000
746.533691	184.000000
746.571289	185.000000
746.608887	185.000000
746.646423	189.000000
746.684021	186.000000
746.721619	185.000000
746.759155	187.000000
746.796753	181.000000
746.834351	174.000000
746.871826	182.000000
746.909424	188.000000
746.946960	185.000000
746.984558	183.000000
747.022156	186.000000
747.059631	192.000000
747.097229	188.000000
747.134827	183.000000
747.172363	193.000000
747.209900	183.000000
747.247498	179.000000
747.285034	188.000000
747.322571	191.000000
747.360168	180.000000
747.397644	176.000000
747.435242	191.000000
747.472778	193.000000
747.510315	179.000000
747.547913	181.000000
747.585388	190.000000
747.622925	185.000000
747.660522	178.000000
747.697998	181.000000
747.735596	181.000000
747.773132	182.000000
747.810669	182.000000
747.848206	191.000000
747.885742	186.000000
747.923279	180.000000
747.960815	182.000000
747.998352	189.000000
748.035889	190.000000
748.073425	187.000000
748.110901	185.000000
748.148437	178.000000
748.185974	183.000000
748.223511	195.000000
748.261047	189.000000
748.298584	187.000000
748.336060	187.000000
748.373596	184.000000
748.411133	208.000000
748.448608	184.000000
748.486145	193.000000
748.523682	192.000000
748.561218	193.000000
748.598755	185.000000
748.636292	189.000000
748.673706	184.000000
748.711243	193.000000
748.748718	183.000000
748.786255	189.000000
748.823792	182.000000
748.861267	180.000000
748.898804	187.000000
748.936340	193.000000
748.973816	179.000000
749.011292	194.000000
749.048828	185.000000
749.086304	184.000000
749.123840	197.000000
749.161316	184.000000
749.198792	191.000000
749.236328	190.000000
749.273743	186.000000
749.311279	182.000000
749.348816	182.000000
749.386230	190.000000
749.423767	171.000000
749.461304	188.000000
749.498718	185.000000
749.536255	193.000000
749.573730	197.000000
749.611206	193.000000
749.648682	184.000000
749.686218	187.000000
749.723633	189.000000
749.761169	185.000000
749.798645	183.000000
749.836060	183.000000
749.873596	182.000000
749.911011	188.000000
749.948547	198.000000
749.986023	182.000000
750.023437	187.000000
750.060913	180.000000
750.098450	177.000000
750.135864	184.000000
750.173340	187.000000
750.210815	189.000000
750.248291	183.000000
750.285767	185.000000
750.323242	188.000000
750.360657	186.000000
750.398132	182.000000
750.435608	185.000000
750.473022	186.000000
750.510498	183.000000
750.547974	180.000000
750.585449	184.000000
750.622925	178.000000
750.660339	192.000000
750.697815	189.000000
750.735291	179.000000
750.772644	188.000000
750.810120	181.000000
750.847595	193.000000
750.885010	177.000000
750.922485	197.000000
750.959961	180.000000
750.997375	190.000000
751.034851	189.000000
751.072266	191.000000
751.109680	176.000000
751.147156	191.000000
751.184570	189.000000
751.221985	184.000000
751.259460	174.000000
751.296875	187.000000
751.334290	183.000000
751.371765	193.000000
751.409180	188.000000
751.446594	192.000000
751.484070	187.000000
751.521423	192.000000
751.558899	189.000000
751.596375	196.000000
751.633728	190.000000
751.671204	200.000000
751.708618	184.000000
751.746033	185.000000
751.783447	179.000000
751.820801	185.000000
751.858276	191.000000
751.895691	184.000000
751.933105	187.000000
751.970520	179.000000
752.007935	184.000000
752.045349	190.000000
752.082764	192.000000
752.120178	182.000000
752.157532	182.000000
752.195007	182.000000
752.232422	188.000000
752.269775	196.000000
752.307190	190.000000
752.344543	180.000000
752.382019	183.000000
752.419434	182.000000
752.456787	190.000000
752.494202	191.000000
752.531616	187.000000
752.568970	189.000000
752.606384	191.000000
752.643799	187.000000
752.681152	192.000000
752.718567	189.000000
752.755981	180.000000
752.793335	187.000000
752.830750	178.000000
752.868164	192.000000
752.905518	180.000000
752.942932	189.000000
752.980225	184.000000
753.017639	186.000000
753.055054	192.000000
753.092407	188.000000
753.129822	191.000000
753.167175	193.000000
753.204529	188.000000
753.241943	181.000000
753.279358	185.000000
753.316650	188.000000
753.354065	187.000000
753.391479	190.000000
753.428772	196.000000
753.466187	186.000000
753.503479	178.000000
753.540894	182.000000
753.578308	180.000000
753.615601	180.000000
753.653015	189.000000
753.690369	182.000000
753.727722	188.000000
753.765076	185.000000
753.802490	178.000000
753.839783	182.000000
753.877136	183.000000
753.914551	199.000000
753.951843	183.000000
753.989258	192.000000
754.026611	188.000000
754.063904	190.000000
754.101257	181.000000
754.138611	180.000000
754.175964	184.000000
754.213318	197.000000
754.250610	175.000000
754.288025	187.000000
754.325378	176.000000
754.362671	190.000000
754.400024	188.000000
754.437378	196.000000
754.474670	191.000000
754.512085	185.000000
754.549438	182.000000
754.586731	183.000000
754.624084	185.000000
754.661438	181.000000
754.698730	187.000000
754.736084	185.000000
754.773376	182.000000
754.810730	185.000000
754.848083	183.000000
754.885315	190.000000
754.922668	174.000000
754.960022	180.000000
754.997314	191.000000
755.034668	188.000000
755.072021	184.000000
755.109253	185.000000
755.146606	189.000000
755.183960	188.000000
755.221252	196.000000
755.258545	193.000000
755.295898	192.000000
755.333191	196.000000
755.370544	186.000000
755.407776	186.000000
755.445129	186.000000
755.482422	190.000000
755.519714	186.000000
755.557068	180.000000
755.594360	179.000000
755.631653	197.000000
755.668945	195.000000
755.706299	189.000000
755.743530	203.000000
755.780884	196.000000
755.818176	189.000000
755.855408	193.000000
755.892761	192.000000
755.930054	189.000000
755.967346	195.000000
756.004639	195.000000
756.041870	190.000000
756.079224	194.000000
756.116516	189.000000
756.153748	191.000000
756.191040	201.000000
756.228394	190.000000
756.265625	190.000000
756.302917	191.000000
756.340210	190.000000
756.377441	193.000000
756.414795	199.000000
756.452087	188.000000
756.489319	187.000000
756.526611	195.000000
756.563843	192.000000
756.601135	198.000000
756.638428	201.000000
756.675659	192.000000
756.712952	195.000000
756.750244	195.000000
756.787476	193.000000
756.824768	193.000000
756.862061	190.000000
756.899292	238.000000
756.936584	196.000000
756.973816	203.000000
757.011047	208.000000
757.048340	192.000000
757.085632	196.000000
757.122864	210.000000
757.160156	190.000000
757.197327	196.000000
757.234619	201.000000
757.271912	190.000000
757.309082	203.000000
757.346375	194.000000
757.383667	206.000000
757.420837	196.000000
757.458130	196.000000
757.495422	191.000000
757.532593	199.000000
757.569885	191.000000
757.607117	191.000000
757.644348	200.000000
757.681580	212.000000
757.718811	186.000000
757.756042	193.000000
757.793335	197.000000
757.830505	200.000000
757.867798	198.000000
757.905029	196.000000
757.942200	199.000000
757.979492	192.000000
758.016724	201.000000
758.053894	194.000000
758.091187	220.000000
758.128418	195.000000
758.165588	194.000000
758.202820	212.000000
758.240112	205.000000
758.277283	204.000000
758.314514	201.000000
758.351685	191.000000
758.388916	210.000000
758.426147	205.000000
758.463379	209.000000
758.500610	201.000000
758.537842	198.000000
758.575012	205.000000
758.612244	197.000000
758.649475	211.000000
758.686646	195.000000
758.723877	205.000000
758.761108	211.000000
758.798279	201.000000
758.835510	200.000000
758.872742	204.000000
758.909851	203.000000
758.947083	203.000000
758.984253	204.000000
759.021484	205.000000
759.058716	207.000000
759.095886	206.000000
759.133057	203.000000
759.170288	206.000000
759.207458	209.000000
759.244690	213.000000
759.281860	214.000000
759.319031	205.000000
759.356262	203.000000
759.393433	202.000000
759.430603	204.000000
759.467773	205.000000
759.505005	214.000000
759.542175	214.000000
759.579346	206.000000
759.616516	207.000000
759.653687	208.000000
759.690918	204.000000
759.728027	209.000000
759.765259	208.000000
759.802429	211.000000
759.839539	210.000000
759.876770	214.000000
759.913940	218.000000
759.951111	210.000000
759.988281	207.000000
760.025452	203.000000
760.062561	205.000000
760.099792	221.000000
760.136963	212.000000
760.174072	205.000000
760.211243	206.000000
760.248413	204.000000
760.285583	207.000000
760.322754	221.000000
760.359863	218.000000
760.397034	218.000000
760.434204	206.000000
760.471375	208.000000
760.508545	208.000000
760.545715	210.000000
760.582825	208.000000
760.619995	210.000000
760.657166	208.000000
760.694275	216.000000
760.731445	215.000000
760.768555	213.000000
760.805664	215.000000
760.842834	208.000000
760.879944	216.000000
760.917114	215.000000
760.954285	212.000000
760.991394	207.000000
761.028564	223.000000
761.065674	215.000000
761.102783	211.000000
761.139954	220.000000
761.177124	219.000000
761.214172	225.000000
761.251343	216.000000
761.288452	217.000000
761.325562	224.000000
761.362732	212.000000
761.399841	219.000000
761.436951	222.000000
761.474121	216.000000
761.511169	220.000000
761.548340	227.000000
761.585449	232.000000
761.622559	221.000000
761.659668	228.000000
761.696838	230.000000
761.733887	224.000000
761.771057	221.000000
761.808167	222.000000
761.845276	228.000000
761.882385	236.000000
761.919434	225.000000
761.956604	247.000000
761.993713	229.000000
762.030762	237.000000
762.067871	227.000000
762.105042	229.000000
762.142090	235.000000
762.179199	229.000000
762.216309	232.000000
762.253418	248.000000
762.290527	237.000000
762.327637	238.000000
762.364685	226.000000
762.401794	238.000000
762.438904	236.000000
762.475952	231.000000
762.513062	226.000000
762.550110	224.000000
762.587219	240.000000
762.624329	239.000000
762.661377	237.000000
762.698486	241.000000
762.735596	236.000000
762.772644	234.000000
762.809753	232.000000
762.846863	241.000000
762.883911	245.000000
762.921021	241.000000
762.958069	234.000000
762.995117	247.000000
763.032227	245.000000
763.069336	236.000000
763.106323	239.000000
763.143433	242.000000
763.180481	245.000000
763.217590	245.000000
763.254639	241.000000
763.291687	241.000000
763.328735	242.000000
763.365845	241.000000
763.402893	240.000000
763.439941	245.000000
763.477051	255.000000
763.514038	248.000000
763.551147	247.000000
763.588196	256.000000
763.625244	249.000000
763.662292	255.000000
763.699402	254.000000
763.736389	247.000000
763.773499	264.000000
763.810486	249.000000
763.847534	248.000000
763.884644	254.000000
763.921631	251.000000
763.958679	265.000000
763.995728	258.000000
764.032776	269.000000
764.069824	251.000000
764.106873	251.000000
764.143860	266.000000
764.180969	250.000000
764.218018	260.000000
764.255005	254.000000
764.292053	260.000000
764.329102	270.000000
764.366089	267.000000
764.403137	264.000000
764.440125	261.000000
764.477173	266.000000
764.514221	267.000000
764.551208	259.000000
764.588257	259.000000
764.625305	268.000000
764.662292	269.000000
764.699341	273.000000
764.736389	271.000000
764.773376	278.000000
764.810425	273.000000
764.847473	277.000000
764.884399	280.000000
764.921448	286.000000
764.958435	287.000000
764.995483	275.000000
765.032532	294.000000
765.069458	271.000000
765.106506	275.000000
765.143555	272.000000
765.180481	275.000000
765.217529	287.000000
765.254578	269.000000
765.291504	281.000000
765.328552	282.000000
765.365540	283.000000
765.402527	298.000000
765.439575	285.000000
765.476501	276.000000
765.513550	283.000000
765.550537	285.000000
765.587463	290.000000
765.624512	277.000000
765.661499	278.000000
765.698486	286.000000
765.735474	274.000000
765.772461	284.000000
765.809448	293.000000
765.846436	291.000000
765.883423	296.000000
765.920410	289.000000
765.957397	283.000000
765.994385	293.000000
766.031311	303.000000
766.068359	295.000000
766.105286	297.000000
766.142273	288.000000
766.179260	289.000000
766.216187	283.000000
766.253174	285.000000
766.290161	287.000000
766.327148	299.000000
766.364136	299.000000
766.401123	315.000000
766.438049	294.000000
766.475037	310.000000
766.512024	307.000000
766.548950	322.000000
766.585937	320.000000
766.622864	315.000000
766.659790	313.000000
766.696777	302.000000
766.733704	317.000000
766.770691	313.000000
766.807678	325.000000
766.844604	324.000000
766.881531	322.000000
766.918518	326.000000
766.955444	324.000000
766.992432	324.000000
767.029358	334.000000
767.066284	333.000000
767.103271	327.000000
767.140198	357.000000
767.177124	352.000000
767.214050	342.000000
767.251038	337.000000
767.287964	336.000000
767.324890	335.000000
767.361816	342.000000
767.398743	341.000000
767.435730	340.000000
767.472595	348.000000
767.509583	349.000000
767.546509	343.000000
767.583374	347.000000
767.620361	341.000000
767.657288	342.000000
767.694214	346.000000
767.731140	352.000000
767.768066	357.000000
767.804993	356.000000
767.841919	349.000000
767.878845	346.000000
767.915710	353.000000
767.952698	352.000000
767.989563	368.000000
768.026489	362.000000
768.063416	353.000000
768.100281	349.000000
768.137207	370.000000
768.174133	361.000000
768.211060	367.000000
768.247986	359.000000
768.284912	362.000000
768.321777	368.000000
768.358704	355.000000
768.395630	365.000000
768.432495	366.000000
768.469421	377.000000
768.506348	369.000000
768.543152	374.000000
768.580078	371.000000
768.616943	372.000000
768.653870	384.000000
768.690796	382.000000
768.727661	378.000000
768.764587	378.000000
768.801453	371.000000
768.838318	373.000000
768.875244	384.000000
768.912109	392.000000
768.948975	383.000000
768.985901	387.000000
769.022766	385.000000
769.059631	390.000000
769.096558	388.000000
769.133362	394.000000
769.170288	394.000000
769.207214	395.000000
769.244019	395.000000
769.280945	393.000000
769.317810	403.000000
769.354675	408.000000
769.391541	412.000000
769.428406	414.000000
769.465271	415.000000
769.502136	409.000000
769.539062	413.000000
769.575867	406.000000
769.612732	424.000000
769.649597	421.000000
769.686462	417.000000
769.723328	421.000000
769.760193	415.000000
769.797058	424.000000
769.833923	428.000000
769.870728	424.000000
769.907593	429.000000
769.944519	423.000000
769.981323	440.000000
770.018188	433.000000
770.055054	431.000000
770.091858	431.000000
770.128723	442.000000
770.165588	444.000000
770.202393	424.000000
770.239258	439.000000
770.276062	432.000000
770.312927	442.000000
770.349792	447.000000
770.386597	445.000000
770.423462	450.000000
770.460327	467.000000
770.497131	447.000000
770.533997	442.000000
770.570862	462.000000
770.607605	458.000000
770.644470	456.000000
770.681335	459.000000
770.718140	454.000000
770.754944	451.000000
770.791809	460.000000
770.828613	451.000000
770.865479	452.000000
770.902222	459.000000
770.939087	461.000000
770.975952	457.000000
771.012695	463.000000
771.049561	470.000000
771.086365	463.000000
771.123169	469.000000
771.159973	470.000000
771.196838	469.000000
771.233582	474.000000
771.270447	470.000000
771.307251	474.000000
771.344055	469.000000
771.380859	476.000000
771.417664	473.000000
771.454468	476.000000
771.491272	475.000000
771.528076	481.000000
771.564880	476.000000
771.601685	494.000000
771.638428	473.000000
771.675293	488.000000
771.712097	470.000000
771.748840	494.000000
771.785645	474.000000
771.822449	488.000000
771.859253	492.000000
771.896057	496.000000
771.932861	505.000000
771.969604	498.000000
772.006409	489.000000
772.043213	508.000000
772.079956	496.000000
772.116760	503.000000
772.153503	506.000000
772.190308	521.000000
772.227112	509.000000
772.263855	506.000000
772.300659	513.000000
772.337463	529.000000
772.374207	520.000000
772.411011	525.000000
772.447754	517.000000
772.484497	526.000000
772.521301	522.000000
772.558105	517.000000
772.594849	527.000000
772.631592	539.000000
772.668396	541.000000
772.705139	537.000000
772.741882	538.000000
772.778625	559.000000
772.815430	556.000000
772.852173	559.000000
772.888916	561.000000
772.925720	567.000000
772.962463	574.000000
772.999207	561.000000
773.035950	579.000000
773.072754	580.000000
773.109436	586.000000
773.146240	577.000000
773.182922	572.000000
773.219727	571.000000
773.256470	574.000000
773.293152	571.000000
773.329956	582.000000
773.366699	584.000000
773.403381	578.000000
773.440186	578.000000
773.476929	580.000000
773.513611	585.000000
773.550354	598.000000
773.587158	595.000000
773.623840	586.000000
773.660583	592.000000
773.697327	601.000000
773.734009	595.000000
773.770813	608.000000
773.807495	610.000000
773.844238	605.000000
773.880981	609.000000
773.917664	605.000000
773.954407	617.000000
773.991150	624.000000
774.027832	617.000000
774.064575	619.000000
774.101318	609.000000
774.138000	615.000000
774.174744	621.000000
774.211487	637.000000
774.248108	638.000000
774.284851	635.000000
774.321594	632.000000
774.358276	629.000000
774.395020	648.000000
774.431702	656.000000
774.468384	648.000000
774.505127	655.000000
774.541809	659.000000
774.578491	654.000000
774.615234	661.000000
774.651917	655.000000
774.688599	663.000000
774.725342	675.000000
774.762024	672.000000
774.798706	655.000000
774.835449	661.000000
774.872070	674.000000
774.908813	685.000000
774.945496	684.000000
774.982178	693.000000
775.018860	677.000000
775.055542	679.000000
775.092224	679.000000
775.128967	701.000000
775.165588	701.000000
775.202271	693.000000
775.239014	692.000000
775.275635	695.000000
775.312317	691.000000
775.349060	700.000000
775.385681	707.000000
775.422363	710.000000
775.459045	705.000000
775.495667	692.000000
775.532410	696.000000
775.569092	703.000000
775.605713	721.000000
775.642395	728.000000
775.679016	719.000000
775.715698	719.000000
775.752380	716.000000
775.789001	702.000000
775.825684	720.000000
775.862366	729.000000
775.898987	723.000000
775.935669	725.000000
775.972351	726.000000
776.008972	732.000000
776.045654	731.000000
776.082336	736.000000
776.118958	735.000000
776.155640	736.000000
776.192322	731.000000
776.228882	732.000000
776.265564	734.000000
776.302185	748.000000
776.338867	746.000000
776.375488	739.000000
776.412109	759.000000
776.448792	740.000000
776.485413	761.000000
776.522034	760.000000
776.558716	750.000000
776.595337	751.000000
776.631958	751.000000
776.668579	736.000000
776.705261	749.000000
776.741882	754.000000
776.778503	768.000000
776.815186	769.000000
776.851746	762.000000
776.888367	752.000000
776.924988	755.000000
776.961609	758.000000
776.998291	761.000000
777.034851	753.000000
777.071472	773.000000
777.108154	751.000000
777.144714	771.000000
777.181335	767.000000
777.218018	770.000000
777.254578	784.000000
777.291199	791.000000
777.327759	780.000000
777.364380	799.000000
777.401062	806.000000
777.437622	813.000000
777.474243	818.000000
777.510864	823.000000
777.547424	818.000000
777.584045	833.000000
777.620667	820.000000
777.657227	830.000000
777.693848	833.000000
777.730469	841.000000
777.767029	824.000000
777.803650	843.000000
777.840271	833.000000
777.876831	837.000000
777.913452	850.000000
777.950012	842.000000
777.986633	831.000000
778.023193	840.000000
778.059753	830.000000
778.096375	838.000000
778.132996	840.000000
778.169556	842.000000
778.206116	844.000000
778.242737	837.000000
778.279297	860.000000
778.315857	847.000000
778.352478	855.000000
778.389038	859.000000
778.425598	878.000000
778.462219	889.000000
778.498718	869.000000
778.535339	889.000000
778.571838	888.000000
778.608459	898.000000
778.645020	876.000000
778.681580	896.000000
778.718140	895.000000
778.754761	883.000000
778.791260	898.000000
778.827881	894.000000
778.864441	889.000000
778.900940	897.000000
778.937561	890.000000
778.974121	903.000000
779.010620	904.000000
779.047241	912.000000
779.083801	921.000000
779.120300	917.000000
779.156860	949.000000
779.193359	933.000000
779.229980	951.000000
779.266541	962.000000
779.303040	965.000000
779.339600	947.000000
779.376160	949.000000
779.412659	963.000000
779.449219	975.000000
779.485779	984.000000
779.522278	970.000000
779.558838	970.000000
779.595398	961.000000
779.631897	952.000000
779.668457	958.000000
779.705017	975.000000
779.741516	959.000000
779.778076	953.000000
779.814575	949.000000
779.851074	951.000000
779.887634	972.000000
779.924133	964.000000
779.960693	959.000000
779.997253	957.000000
780.033691	957.000000
780.070251	957.000000
780.106812	982.000000
780.143250	1000.000000
780.179810	999.000000
780.216370	1000.000000
780.252808	998.000000
780.289368	1003.000000
780.325867	1015.000000
780.362366	1018.000000
780.398865	1039.000000
780.435364	1049.000000
780.471863	1040.000000
780.508423	1035.000000
780.544861	1050.000000
780.581421	1063.000000
780.617920	1058.000000
780.654419	1057.000000
780.690918	1043.000000
780.727417	1028.000000
780.763916	1028.000000
780.800415	1043.000000
780.836914	1031.000000
780.873352	1077.000000
780.909912	1061.000000
780.946411	1043.000000
780.982849	1034.000000
781.019348	1055.000000
781.055786	1044.000000
781.092346	1053.000000
781.128845	1061.000000
781.165283	1079.000000
781.201782	1074.000000
781.238281	1066.000000
781.274719	1062.000000
781.311218	1072.000000
781.347717	1091.000000
781.384155	1094.000000
781.420654	1103.000000
781.457092	1103.000000
781.493591	1093.000000
781.530090	1111.000000
781.566528	1124.000000
781.602966	1117.000000
781.639465	1106.000000
781.675903	1081.000000
781.712402	1085.000000
781.748901	1087.000000
781.785278	1078.000000
781.821777	1089.000000
781.858276	1079.000000
781.894714	1083.000000
781.931152	1056.000000
781.967651	1066.000000
782.004089	1053.000000
782.040527	1054.000000
782.076965	1040.000000
782.113403	1023.000000
782.149902	969.000000
782.186340	910.000000
782.222778	830.000000
782.259277	726.000000
782.295654	638.000000
782.332092	568.000000
782.368591	502.000000
782.404968	449.000000
782.441467	413.000000
782.477905	365.000000
782.514282	328.000000
782.550781	299.000000
782.587219	267.000000
782.623596	252.000000
782.660095	252.000000
782.696472	255.000000
782.732910	258.000000
782.769348	254.000000
782.805786	287.000000
782.842224	347.000000
782.878662	473.000000
782.915039	661.000000
782.951477	821.000000
782.987915	883.000000
783.024292	876.000000
783.060730	795.000000
783.097168	706.000000
783.133545	607.000000
783.169983	546.000000
783.206421	470.000000
783.242798	427.000000
783.279236	374.000000
783.315613	344.000000
783.352051	304.000000
783.388489	276.000000
783.424866	247.000000
783.461304	245.000000
783.497681	241.000000
783.534058	247.000000
783.570496	250.000000
783.606934	261.000000
783.643250	291.000000
783.679687	381.000000
783.716125	525.000000
783.752441	726.000000
783.788879	907.000000
783.825317	1033.000000
783.861633	1032.000000
783.898071	971.000000
783.934448	919.000000
783.970825	823.000000
784.007263	712.000000
784.043579	639.000000
784.080017	577.000000
784.116394	498.000000
784.152710	441.000000
784.189148	402.000000
784.225525	364.000000
784.261902	327.000000
784.298279	311.000000
784.334656	281.000000
784.371033	256.000000
784.407410	263.000000
784.443787	263.000000
784.480164	261.000000
784.516541	265.000000
784.552856	299.000000
784.589233	355.000000
784.625610	484.000000
784.661987	720.000000
784.698364	911.000000
784.734741	1065.000000
784.771057	1155.000000
784.807434	1177.000000
784.843811	1182.000000
784.880127	1172.000000
784.916504	1214.000000
784.952881	1237.000000
784.989197	1254.000000
785.025574	1278.000000
785.061951	1280.000000
785.098267	1297.000000
785.134644	1297.000000
785.170959	1313.000000
785.207275	1348.000000
785.243652	1372.000000
785.279968	1346.000000
785.316345	1342.000000
785.352722	1308.000000
785.388977	1305.000000
785.425354	1299.000000
785.461731	1297.000000
785.498047	1282.000000
785.534363	1242.000000
785.570679	1218.000000
785.606995	1201.000000
785.643372	1195.000000
785.679687	1203.000000
785.716003	1201.000000
785.752380	1175.000000
785.788635	1173.000000
785.825012	1155.000000
785.861328	1152.000000
785.897644	1191.000000
785.933960	1220.000000
785.970337	1262.000000
786.006592	1279.000000
786.042908	1274.000000
786.079285	1275.000000
786.115540	1330.000000
786.151855	1372.000000
786.188171	1434.000000
786.224487	1447.000000
786.260803	1468.000000
786.297119	1480.000000
786.333435	1466.000000
786.369751	1471.000000
786.406006	1486.000000
786.442322	1475.000000
786.478638	1458.000000
786.514954	1420.000000
786.551270	1366.000000
786.587585	1358.000000
786.623840	1327.000000
786.660156	1324.000000
786.696472	1290.000000
786.732727	1253.000000
786.769043	1235.000000
786.805298	1197.000000
786.841614	1205.000000
786.877930	1227.000000
786.914124	1238.000000
786.950439	1267.000000
786.986755	1248.000000
787.023010	1257.000000
787.059326	1259.000000
787.095642	1291.000000
787.131836	1345.000000
787.168152	1363.000000
787.204468	1391.000000
787.240723	1387.000000
787.276978	1399.000000
787.313293	1426.000000
787.349548	1457.000000
787.385803	1474.000000
787.422058	1482.000000
787.458313	1468.000000
787.494629	1452.000000
787.530823	1445.000000
787.567139	1420.000000
787.603455	1429.000000
787.639648	1432.000000
787.675903	1413.000000
787.712219	1381.000000
787.748413	1363.000000
787.784729	1350.000000
787.820984	1326.000000
787.857178	1327.000000
787.893494	1313.000000
787.929749	1304.000000
787.965942	1307.000000
788.002258	1305.000000
788.038452	1311.000000
788.074707	1311.000000
788.110962	1338.000000
788.147217	1333.000000
788.183472	1338.000000
788.219727	1321.000000
788.255920	1322.000000
788.292175	1321.000000
788.328430	1349.000000
788.364624	1350.000000
788.400879	1343.000000
788.437134	1353.000000
788.473328	1320.000000
788.509583	1331.000000
788.545837	1341.000000
788.582031	1359.000000
788.618286	1379.000000
788.654480	1376.000000
788.690735	1389.000000
788.726990	1394.000000
788.763184	1390.000000
788.799377	1414.000000
788.835632	1412.000000
788.871826	1440.000000
788.908081	1429.000000
788.944336	1422.000000
788.980469	1439.000000
789.016724	1423.000000
789.052979	1436.000000
789.089111	1417.000000
789.125366	1404.000000
789.161621	1371.000000
789.197754	1377.000000
789.234009	1335.000000
789.270142	1333.000000
789.306396	1366.000000
789.342590	1352.000000
789.378784	1342.000000
789.414978	1327.000000
789.451233	1305.000000
789.487366	1304.000000
789.523621	1331.000000
789.559814	1326.000000
789.595947	1347.000000
789.632202	1347.000000
789.668335	1341.000000
789.704529	1341.000000
789.740784	1358.000000
789.776917	1369.000000
789.813110	1402.000000
789.849304	1413.000000
789.885498	1408.000000
789.921692	1405.000000
789.957886	1404.000000
789.994019	1401.000000
790.030212	1416.000000
790.066406	1446.000000
790.102539	1436.000000
790.138733	1423.000000
790.174927	1393.000000
790.211060	1390.000000
790.247253	1389.000000
790.283386	1408.000000
790.319580	1417.000000
790.355774	1382.000000
790.391907	1308.000000
790.428101	1203.000000
790.464294	1050.000000
790.500427	913.000000
790.536621	759.000000
790.572754	636.000000
790.608887	564.000000
790.645081	597.000000
790.681274	760.000000
790.717346	970.000000
790.753540	1194.000000
790.789734	1325.000000
790.825867	1375.000000
790.862000	1365.000000
790.898132	1353.000000
790.934265	1334.000000
790.970459	1348.000000
791.006592	1371.000000
791.042725	1378.000000
791.078918	1364.000000
791.114990	1330.000000
791.151184	1295.000000
791.187317	1304.000000
791.223389	1321.000000
791.259583	1331.000000
791.295715	1348.000000
791.331848	1346.000000
791.367981	1352.000000
791.404114	1346.000000
791.440247	1353.000000
791.476379	1393.000000
791.512451	1404.000000
791.548584	1426.000000
791.584778	1413.000000
791.620850	1421.000000
791.656982	1413.000000
791.693115	1414.000000
791.729187	1421.000000
791.765381	1438.000000
791.801514	1449.000000
791.837585	1439.000000
791.873718	1433.000000
791.909851	1445.000000
791.945923	1449.000000
791.982056	1436.000000
792.018188	1459.000000
792.054260	1463.000000
792.090393	1472.000000
792.126465	1434.000000
792.162598	1451.000000
792.198669	1437.000000
792.234741	1477.000000
792.270874	1464.000000
792.307007	1460.000000
792.343079	1443.000000
792.379150	1415.000000
792.415283	1409.000000
792.451355	1427.000000
792.487488	1433.000000
792.523560	1416.000000
792.559631	1412.000000
792.595764	1395.000000
792.631836	1371.000000
792.667908	1392.000000
792.703979	1381.000000
792.740051	1404.000000
792.776184	1402.000000
792.812256	1399.000000
792.848328	1383.000000
792.884399	1385.000000
792.920471	1390.000000
792.956543	1415.000000
792.992615	1420.000000
793.028748	1406.000000
793.064758	1412.000000
793.100830	1417.000000
793.136963	1404.000000
793.172974	1426.000000
793.209045	1432.000000
793.245178	1443.000000
793.281189	1427.000000
793.317261	1409.000000
793.353271	1381.000000
793.389404	1403.000000
793.425476	1411.000000
793.461487	1406.000000
793.497559	1423.000000
793.533630	1417.000000
793.569641	1393.000000
793.605713	1374.000000
793.641785	1368.000000
793.677795	1385.000000
793.713867	1392.000000
793.749878	1391.000000
793.785950	1390.000000
793.822021	1416.000000
793.858032	1382.000000
793.894104	1407.000000
793.930176	1400.000000
793.966187	1431.000000
794.002258	1395.000000
794.038269	1416.000000
794.074280	1400.000000
794.110352	1400.000000
794.146423	1389.000000
794.182373	1406.000000
794.218445	1429.000000
794.254517	1421.000000
794.290466	1398.000000
794.326538	1389.000000
794.362549	1368.000000
794.398560	1376.000000
794.434631	1355.000000
794.470581	1339.000000
794.506653	1324.000000
794.542664	1321.000000
794.578674	1304.000000
794.614685	1303.000000
794.650757	1299.000000
794.686707	1327.000000
794.722778	1332.000000
794.758789	1338.000000
794.794739	1335.000000
794.830811	1335.000000
794.866821	1330.000000
794.902771	1338.000000
794.938843	1349.000000
794.974792	1356.000000
795.010803	1379.000000
795.046814	1354.000000
795.082825	1340.000000
795.118835	1356.000000
795.154846	1342.000000
795.190796	1352.000000
795.226807	1338.000000
795.262817	1355.000000
795.298767	1297.000000
795.334778	1308.000000
795.370850	1298.000000
795.406799	1300.000000
795.442810	1291.000000
795.478821	1304.000000
795.514709	1287.000000
795.550720	1279.000000
795.586670	1243.000000
795.622681	1220.000000
795.658691	1237.000000
795.694641	1239.000000
795.730652	1245.000000
795.766663	1246.000000
795.802551	1239.000000
795.838562	1239.000000
795.874573	1228.000000
795.910522	1230.000000
795.946472	1222.000000
795.982483	1224.000000
796.018433	1226.000000
796.054382	1214.000000
796.090393	1206.000000
796.126282	1224.000000
796.162292	1235.000000
796.198242	1262.000000
796.234192	1262.000000
796.270203	1248.000000
796.306091	1251.000000
796.342041	1259.000000
796.378052	1256.000000
796.413940	1256.000000
796.449951	1278.000000
796.485901	1254.000000
796.521790	1240.000000
796.557800	1237.000000
796.593689	1252.000000
796.629639	1251.000000
796.665649	1262.000000
796.701599	1267.000000
796.737488	1268.000000
796.773437	1263.000000
796.809387	1236.000000
796.845337	1258.000000
796.881287	1272.000000
796.917175	1287.000000
796.953125	1299.000000
796.989075	1272.000000
797.024963	1261.000000
797.060913	1248.000000
797.096863	1263.000000
797.132751	1283.000000
797.168701	1264.000000
797.204590	1260.000000
797.240540	1203.000000
797.276489	1191.000000
797.312439	1195.000000
797.348328	1196.000000
797.384277	1222.000000
797.420166	1234.000000
797.456055	1237.000000
797.492004	1208.000000
797.527893	1189.000000
797.563843	1197.000000
797.599731	1188.000000
797.635620	1215.000000
797.671570	1229.000000
797.707520	1214.000000
797.743347	1198.000000
797.779297	1195.000000
797.815125	1203.000000
797.851074	1221.000000
797.887024	1247.000000
797.922913	1249.000000
797.958801	1229.000000
797.994690	1198.000000
798.030579	1186.000000
798.066467	1201.000000
798.102356	1210.000000
798.138245	1230.000000
798.174133	1214.000000
798.210083	1203.000000
798.245911	1199.000000
798.281799	1199.000000
798.317749	1176.000000
798.353577	1215.000000
798.389465	1206.000000
798.425293	1191.000000
798.461243	1173.000000
798.497131	1155.000000
798.532959	1173.000000
798.568848	1185.000000
798.604736	1197.000000
798.640564	1195.000000
798.676453	1181.000000
798.712402	1173.000000
798.748230	1157.000000
798.784119	1159.000000
798.820007	1176.000000
798.855835	1199.000000
798.891724	1201.000000
798.927551	1161.000000
798.963379	1164.000000
798.999268	1164.000000
799.035095	1162.000000
799.070984	1175.000000
799.106873	1178.000000
799.142700	1187.000000
799.178528	1148.000000
799.214417	1162.000000
799.250244	1164.000000
799.286133	1156.000000
799.321960	1176.000000
799.357788	1174.000000
799.393677	1175.000000
799.429504	1165.000000
799.465332	1142.000000
799.501221	1153.000000
799.537048	1159.000000
799.572876	1163.000000
799.608704	1160.000000
799.644531	1156.000000
799.680359	1141.000000
799.716248	1153.000000
799.752014	1163.000000
799.787903	1171.000000
799.823730	1166.000000
799.859558	1171.000000
799.895386	1138.000000
799.931213	1109.000000
799.967041	1112.000000
800.002869	1106.000000
800.038696	1126.000000
800.074463	1125.000000
800.110352	1126.000000
800.146179	1097.000000
800.181946	1101.000000
800.217773	1103.000000
800.253540	1113.000000
800.289429	1128.000000
800.325256	1105.000000
800.361023	1089.000000
800.396851	1088.000000
800.432678	1080.000000
800.468445	1060.000000
800.504272	1074.000000
800.540100	1079.000000
800.575867	1079.000000
800.611694	1078.000000
800.647461	1058.000000
800.683289	1044.000000
800.719116	1050.000000
800.754883	1059.000000
800.790649	1037.000000
800.826477	1038.000000
800.862244	1055.000000
800.898071	1022.000000
800.933838	1013.000000
800.969604	1031.000000
801.005432	1029.000000
801.041199	1053.000000
801.076965	1027.000000
801.112793	1012.000000
801.148560	992.000000
801.184326	993.000000
801.220154	995.000000
801.255859	991.000000
801.291687	993.000000
801.327454	989.000000
801.363281	988.000000
801.398987	975.000000
801.434814	972.000000
801.470520	972.000000
801.506287	966.000000
801.542114	955.000000
801.577820	965.000000
801.613647	946.000000
801.649414	933.000000
801.685120	950.000000
801.720886	960.000000
801.756714	949.000000
801.792419	953.000000
801.828186	938.000000
801.863892	945.000000
801.899719	946.000000
801.935486	929.000000
801.971252	944.000000
802.006958	940.000000
802.042725	942.000000
802.078430	921.000000
802.114197	919.000000
802.149963	942.000000
802.185669	930.000000
802.221436	934.000000
802.257202	937.000000
802.292908	926.000000
802.328674	929.000000
802.364441	932.000000
802.400146	910.000000
802.435913	922.000000
802.471558	913.000000
802.507324	905.000000
802.543091	904.000000
802.578796	923.000000
802.614502	916.000000
802.650269	917.000000
802.685974	913.000000
802.721741	915.000000
802.757446	918.000000
802.793152	899.000000
802.828918	906.000000
802.864624	910.000000
802.900330	916.000000
802.936035	903.000000
802.971802	902.000000
803.007446	900.000000
803.043213	892.000000
803.078857	904.000000
803.114624	866.000000
803.150330	869.000000
803.185974	873.000000
803.221741	864.000000
803.257446	884.000000
803.293152	882.000000
803.328857	864.000000
803.364563	860.000000
803.400208	848.000000
803.435974	861.000000
803.471680	867.000000
803.507324	849.000000
803.543030	855.000000
803.578735	835.000000
803.614441	829.000000
803.650146	842.000000
803.685791	836.000000
803.721497	827.000000
803.757202	833.000000
803.792847	838.000000
803.828552	821.000000
803.864258	807.000000
803.899902	818.000000
803.935608	807.000000
803.971313	807.000000
804.006958	797.000000
804.042664	791.000000
804.078308	798.000000
804.113953	793.000000
804.149658	812.000000
804.185364	799.000000
804.221008	812.000000
804.256714	796.000000
804.292297	782.000000
804.328003	767.000000
804.363708	778.000000
804.399292	775.000000
804.434998	766.000000
804.470703	770.000000
804.506287	780.000000
804.541992	769.000000
804.577637	781.000000
804.613281	762.000000
804.648926	759.000000
804.684570	758.000000
804.720215	753.000000
804.755920	750.000000
804.791565	750.000000
804.827209	753.000000
804.862854	745.000000
804.898437	749.000000
804.934143	762.000000
804.969788	756.000000
805.005371	754.000000
805.041077	758.000000
805.076721	753.000000
805.112305	739.000000
805.147949	759.000000
805.183655	726.000000
805.219238	750.000000
805.254883	737.000000
805.290466	742.000000
805.326111	743.000000
805.361755	735.000000
805.397400	739.000000
805.432983	748.000000
805.468628	738.000000
805.504211	730.000000
805.539856	724.000000
805.575500	738.000000
805.611084	728.000000
805.646729	724.000000
805.682373	719.000000
805.717957	730.000000
805.753601	726.000000
805.789246	714.000000
805.824768	721.000000
805.860413	729.000000
805.895996	722.000000
805.931641	722.000000
805.967224	717.000000
806.002869	705.000000
806.038452	706.000000
806.074036	717.000000
806.109619	710.000000
806.145264	704.000000
806.180847	704.000000
806.216431	703.000000
806.252014	700.000000
806.287659	700.000000
806.323181	706.000000
806.358826	706.000000
806.394409	689.000000
806.429993	683.000000
806.465576	693.000000
806.501160	675.000000
806.536743	665.000000
806.572327	678.000000
806.607910	679.000000
806.643494	687.000000
806.679077	673.000000
806.714661	663.000000
806.750244	672.000000
806.785828	649.000000
806.821350	661.000000
806.856934	658.000000
806.892517	655.000000
806.928101	646.000000
806.963684	657.000000
806.999268	655.000000
807.034790	634.000000
807.070374	637.000000
807.105896	631.000000
807.141479	627.000000
807.177063	639.000000
807.212585	624.000000
807.248169	633.000000
807.283752	642.000000
807.319275	619.000000
807.354858	624.000000
807.390381	615.000000
807.425903	613.000000
807.461487	623.000000
807.497070	610.000000
807.532593	612.000000
807.568115	611.000000
807.603699	616.000000
807.639221	595.000000
807.674744	603.000000
807.710266	605.000000
807.745850	605.000000
807.781372	608.000000
807.816895	599.000000
807.852417	603.000000
807.888000	605.000000
807.923523	599.000000
807.959045	590.000000
807.994629	589.000000
808.030090	592.000000
808.065613	586.000000
808.101135	593.000000
808.136658	597.000000
808.172241	584.000000
808.207764	590.000000
808.243225	583.000000
808.278809	578.000000
808.314270	588.000000
808.349792	567.000000
808.385315	570.000000
808.420837	578.000000
808.456360	577.000000
808.491882	573.000000
808.527344	569.000000
808.562866	590.000000
808.598389	563.000000
808.633850	564.000000
808.669434	561.000000
808.704895	564.000000
808.740417	564.000000
808.775940	566.000000
808.811462	549.000000
808.846924	554.000000
808.882385	546.000000
808.917847	541.000000
808.953369	541.000000
808.988892	534.000000
809.024353	541.000000
809.059875	540.000000
809.095398	540.000000
809.130798	539.000000
809.166321	533.000000
809.201843	536.000000
809.237305	527.000000
809.272766	533.000000
809.308228	517.000000
809.343750	533.000000
809.379211	525.000000
809.414734	525.000000
809.450134	530.000000
809.485657	509.000000
809.521118	523.000000
809.556580	511.000000
809.592102	519.000000
809.627502	512.000000
809.663025	499.000000
809.698486	497.000000
809.733887	507.000000
809.769409	495.000000
809.804871	486.000000
809.840271	505.000000
809.875793	495.000000
809.911194	502.000000
809.946655	504.000000
809.982178	483.000000
810.017639	498.000000
810.053040	493.000000
810.088501	479.000000
810.123901	486.000000
810.159424	483.000000
810.194885	475.000000
810.230286	484.000000
810.265747	477.000000
810.301208	470.000000
810.336609	481.000000
810.372070	471.000000
810.407532	473.000000
810.442932	479.000000
810.478394	479.000000
810.513794	466.000000
810.549255	466.000000
810.584717	463.000000
810.620117	458.000000
810.655518	468.000000
810.690979	464.000000
810.726379	466.000000
810.761841	458.000000
810.797302	461.000000
810.832642	451.000000
810.868103	462.000000
810.903564	449.000000
810.938904	453.000000
810.974365	444.000000
811.009827	460.000000
811.045166	458.000000
811.080627	449.000000
811.115967	443.000000
811.151428	446.000000
811.186829	443.000000
811.222229	441.000000
811.257629	435.000000
811.293091	449.000000
811.328430	444.000000
811.363892	435.000000
811.399292	441.000000
811.434631	442.000000
811.470093	439.000000
811.505493	432.000000
811.540833	433.000000
811.576294	435.000000
811.611694	420.000000
811.647034	439.000000
811.682434	427.000000
811.717773	433.000000
811.753235	441.000000
811.788635	425.000000
811.823975	426.000000
811.859375	440.000000
811.894775	422.000000
811.930115	421.000000
811.965515	427.000000
812.000916	427.000000
812.036255	427.000000
812.071655	431.000000
812.106995	418.000000
812.142395	417.000000
812.177795	424.000000
812.213196	415.000000
812.248474	424.000000
812.283875	413.000000
812.319214	414.000000
812.354614	410.000000
812.390015	413.000000
812.425293	406.000000
812.460693	417.000000
812.496094	399.000000
812.531433	403.000000
812.566772	393.000000
812.602173	406.000000
812.637451	403.000000
812.672852	399.000000
812.708191	401.000000
812.743530	397.000000
812.778931	383.000000
812.814270	401.000000
812.849609	393.000000
812.884949	395.000000
812.920227	373.000000
812.955627	394.000000
812.990967	389.000000
813.026306	385.000000
813.061646	373.000000
813.096985	374.000000
813.132324	367.000000
813.167664	371.000000
813.203003	377.000000
813.238281	366.000000
813.273682	361.000000
813.308960	364.000000
813.344299	362.000000
813.379639	373.000000
813.414978	367.000000
813.450256	367.000000
813.485596	364.000000
813.520874	357.000000
813.556213	360.000000
813.591614	367.000000
813.626831	353.000000
813.662170	356.000000
813.697510	370.000000
813.732788	353.000000
813.768127	364.000000
813.803467	357.000000
813.838745	349.000000
813.874084	350.000000
813.909363	352.000000
813.944641	365.000000
813.979980	339.000000
814.015320	349.000000
814.050598	355.000000
814.085876	356.000000
814.121155	351.000000
814.156494	349.000000
814.191772	345.000000
814.227051	340.000000
814.262390	343.000000
814.297668	344.000000
814.332947	342.000000
814.368225	333.000000
814.403564	344.000000
814.438782	336.000000
814.474121	345.000000
814.509338	331.000000
814.544617	346.000000
814.579956	335.000000
814.615173	343.000000
814.650513	331.000000
814.685791	337.000000
814.721008	339.000000
814.756348	335.000000
814.791626	330.000000
814.826843	326.000000
814.862122	329.000000
814.897400	328.000000
814.932678	330.000000
814.967957	324.000000
815.003235	324.000000
815.038452	324.000000
815.073730	316.000000
815.108948	331.000000
815.144226	323.000000
815.179504	331.000000
815.214722	319.000000
815.250000	325.000000
815.285278	319.000000
815.320496	319.000000
815.355774	316.000000
815.391052	319.000000
815.426270	321.000000
815.461487	315.000000
815.496765	311.000000
815.531982	307.000000
815.567261	309.000000
815.602539	313.000000
815.637695	313.000000
815.672974	307.000000
815.708191	313.000000
815.743408	312.000000
815.778687	307.000000
815.813904	311.000000
815.849121	305.000000
815.884399	298.000000
815.919556	300.000000
815.954834	304.000000
815.990051	309.000000
816.025269	301.000000
816.060486	302.000000
816.095703	295.000000
816.130920	301.000000
816.166199	295.000000
816.201416	299.000000
816.236572	302.000000
816.271851	294.000000
816.307007	295.000000
816.342224	288.000000
816.377441	293.000000
816.412659	286.000000
816.447876	291.000000
816.483093	288.000000
816.518250	288.000000
816.553467	290.000000
816.588745	288.000000
816.623901	277.000000
816.659119	270.000000
816.694275	281.000000
816.729492	277.000000
816.764709	309.000000
816.799927	279.000000
816.835083	279.000000
816.870300	271.000000
816.905457	281.000000
816.940674	285.000000
816.975830	276.000000
817.010986	274.000000
817.046204	278.000000
817.081421	270.000000
817.116577	273.000000
817.151733	286.000000
817.186951	274.000000
817.222107	274.000000
817.257324	279.000000
817.292419	273.000000
817.327637	270.000000
817.362854	276.000000
817.398010	271.000000
817.433167	276.000000
817.468323	269.000000
817.503479	273.000000
817.538635	279.000000
817.573853	272.000000
817.608948	270.000000
817.644165	267.000000
817.679321	266.000000
817.714478	268.000000
817.749634	268.000000
817.784790	280.000000
817.819946	268.000000
817.855103	257.000000
817.890198	256.000000
817.925415	260.000000
817.960571	271.000000
817.995667	269.000000
818.030823	267.000000
818.066040	262.000000
818.101135	262.000000
818.136292	264.000000
818.171448	259.000000
818.206543	262.000000
818.241699	263.000000
818.276855	263.000000
818.311951	258.000000
818.347107	255.000000
818.382263	257.000000
818.417358	266.000000
818.452515	262.000000
818.487610	267.000000
818.522766	257.000000
818.557922	268.000000
818.593018	263.000000
818.628113	261.000000
818.663269	249.000000
818.698364	261.000000
818.733521	253.000000
818.768677	259.000000
818.803711	250.000000
818.838867	251.000000
818.874023	252.000000
818.909058	253.000000
818.944214	249.000000
818.979370	257.000000
819.014404	256.000000
819.049561	245.000000
819.084595	251.000000
819.119751	246.000000
819.154846	252.000000
819.189941	248.000000
819.225037	244.000000
819.260193	241.000000
819.295227	244.000000
819.330322	241.000000
819.365479	240.000000
819.400513	271.000000
819.435608	237.000000
819.470764	232.000000
819.505798	235.000000
819.540894	240.000000
819.575989	241.000000
819.611084	244.000000
819.646179	251.000000
819.681213	239.000000
819.716309	233.000000
819.751404	237.000000
819.786438	246.000000
819.821533	229.000000
819.856628	244.000000
819.891663	237.000000
819.926758	245.000000
819.961853	241.000000
819.996887	238.000000
820.031982	236.000000
820.067017	233.000000
820.102112	262.000000
820.137207	229.000000
820.172302	247.000000
820.207275	233.000000
820.242371	229.000000
820.277405	231.000000
820.312500	230.000000
820.347534	234.000000
820.382568	236.000000
820.417664	233.000000
820.452759	230.000000
820.487732	231.000000
820.522827	230.000000
820.557861	229.000000
820.592896	226.000000
820.627930	237.000000
820.662964	230.000000
820.698059	233.000000
820.733093	229.000000
820.768127	233.000000
820.803162	230.000000
820.838196	228.000000
820.873230	228.000000
820.908264	225.000000
820.943298	225.000000
820.978333	233.000000
821.013367	224.000000
821.048401	228.000000
821.083435	229.000000
821.118469	216.000000
821.153503	235.000000
821.188477	224.000000
821.223511	221.000000
821.258484	221.000000
821.293579	225.000000
821.328613	220.000000
821.363647	224.000000
821.398621	220.000000
821.433655	225.000000
821.468628	234.000000
821.503662	222.000000
821.538696	220.000000
821.573669	215.000000
821.608704	224.000000
821.643677	222.000000
821.678650	223.000000
821.713684	227.000000
821.748718	215.000000
821.783691	220.000000
821.818726	217.000000
821.853638	226.000000
821.888672	216.000000
821.923706	216.000000
821.958618	214.000000
821.993652	221.000000
822.028687	222.000000
822.063599	227.000000
822.098633	219.000000
822.133667	214.000000
822.168579	213.000000
822.203613	219.000000
822.238586	204.000000
822.273560	218.000000
822.308533	211.000000
822.343567	212.000000
822.378479	210.000000
822.413452	217.000000
822.448425	204.000000
822.483398	218.000000
822.518372	220.000000
822.553345	216.000000
822.588318	223.000000
822.623291	205.000000
822.658203	209.000000
822.693237	213.000000
822.728210	209.000000
822.763123	211.000000
822.798096	204.000000
822.833069	207.000000
822.867981	210.000000
822.902954	208.000000
822.937927	213.000000
822.972900	221.000000
823.007874	200.000000
823.042725	208.000000
823.077698	221.000000
823.112671	203.000000
823.147583	206.000000
823.182556	206.000000
823.217529	207.000000
823.252441	199.000000
823.287415	219.000000
823.322388	207.000000
823.357239	205.000000
823.392212	213.000000
823.427185	214.000000
823.462097	208.000000
823.497009	207.000000
823.531982	204.000000
823.566895	205.000000
823.601807	197.000000
823.636719	204.000000
823.671631	208.000000
823.706604	204.000000
823.741455	207.000000
823.776428	199.000000
823.811340	209.000000
823.846252	212.000000
823.881165	211.000000
823.916138	203.000000
823.950989	215.000000
823.985901	200.000000
824.020813	199.000000
824.055725	204.000000
824.090637	198.000000
824.125610	208.000000
824.160461	208.000000
824.195374	210.000000
824.230225	205.000000
824.265198	200.000000
824.300110	200.000000
824.334961	212.000000
824.369873	194.000000
824.404785	205.000000
824.439636	208.000000
824.474548	194.000000
824.509460	196.000000
824.544312	208.000000
824.579224	208.000000
824.614075	206.000000
824.648987	201.000000
824.683899	204.000000
824.718811	199.000000
824.753662	208.000000
824.788574	213.000000
824.823364	201.000000
824.858276	201.000000
824.893188	206.000000
824.928040	204.000000
824.962952	197.000000
824.997803	206.000000
825.032654	195.000000
825.067566	203.000000
825.102417	195.000000
825.137268	199.000000
825.172119	194.000000
825.206970	194.000000
825.241882	196.000000
825.276733	195.000000
825.311646	191.000000
825.346436	195.000000
825.381348	192.000000
825.416138	202.000000
825.450989	190.000000
825.485901	191.000000
825.520691	188.000000
825.555542	195.000000
825.590454	196.000000
825.625244	192.000000
825.660095	204.000000
825.695007	205.000000
825.729797	195.000000
825.764648	196.000000
825.799438	190.000000
825.834290	191.000000
825.869202	192.000000
825.903992	198.000000
825.938843	193.000000
825.973694	195.000000
826.008484	204.000000
826.043335	189.000000
826.078186	188.000000
826.112976	203.000000
826.147827	200.000000
826.182678	204.000000
826.217468	188.000000
826.252319	203.000000
826.287109	194.000000
826.321899	199.000000
826.356750	191.000000
826.391541	192.000000
826.426392	198.000000
826.461182	196.000000
826.495972	195.000000
826.530823	183.000000
826.565613	194.000000
826.600403	187.000000
826.635254	195.000000
826.670044	184.000000
826.704834	185.000000
826.739685	184.000000
826.774475	195.000000
826.809265	191.000000
826.844055	190.000000
826.878906	193.000000
826.913635	196.000000
826.948425	193.000000
826.983215	196.000000
827.018005	191.000000
827.052856	190.000000
827.087585	195.000000
827.122375	185.000000
827.157227	189.000000
827.191956	205.000000
827.226746	183.000000
827.261536	194.000000
827.296265	178.000000
827.331116	189.000000
827.365906	193.000000
827.400635	189.000000
827.435425	182.000000
827.470215	192.000000
827.504944	187.000000
827.539734	195.000000
827.574463	188.000000
827.609253	197.000000
827.644043	189.000000
827.678772	194.000000
827.713562	191.000000
827.748352	188.000000
827.783081	186.000000
827.817871	192.000000
827.852600	187.000000
827.887329	192.000000
827.922119	180.000000
827.956848	194.000000
827.991638	200.000000
828.026367	193.000000
828.061157	194.000000
828.095886	193.000000
828.130615	208.000000
828.165344	183.000000
828.200073	187.000000
828.234863	183.000000
828.269592	189.000000
828.304321	190.000000
828.339111	191.000000
828.373779	185.000000
828.408569	190.000000
828.443298	191.000000
828.477966	186.000000
828.512756	183.000000
828.547424	187.000000
828.582214	183.000000
828.616943	187.000000
828.651672	183.000000
828.686340	193.000000
828.721130	182.000000
828.755798	188.000000
828.790527	182.000000
828.825256	186.000000
828.859924	185.000000
828.894714	196.000000
828.929443	189.000000
828.964111	184.000000
828.998840	191.000000
829.033569	183.000000
829.068237	185.000000
829.102966	185.000000
829.137634	190.000000
829.172363	189.000000
829.207092	188.000000
829.241821	180.000000
829.276489	176.000000
829.311157	186.000000
829.345825	184.000000
829.380554	192.000000
829.415283	182.000000
829.449951	177.000000
829.484619	194.000000
829.519348	199.000000
829.554016	185.000000
829.588745	187.000000
829.623413	182.000000
829.658081	195.000000
829.692749	182.000000
829.727417	189.000000
829.762146	185.000000
829.796814	179.000000
829.831482	184.000000
829.866150	187.000000
829.900879	184.000000
829.935486	188.000000
829.970154	182.000000
830.004883	195.000000
830.039490	184.000000
830.074219	184.000000
830.108887	185.000000
830.143494	183.000000
830.178223	182.000000
830.212891	183.000000
830.247498	187.000000
830.282166	194.000000
830.316772	192.000000
830.351501	184.000000
830.386169	185.000000
830.420776	179.000000
830.455444	181.000000
830.490112	177.000000
830.524719	182.000000
830.559387	187.000000
830.594055	193.000000
830.628662	182.000000
830.663330	186.000000
830.697998	189.000000
830.732605	184.000000
830.767273	184.000000
830.801941	184.000000
830.836487	193.000000
830.871155	188.000000
830.905762	181.000000
830.940430	181.000000
830.975098	180.000000
831.009644	183.000000
831.044312	193.000000
831.078979	189.000000
831.113525	173.000000
831.148193	188.000000
831.182861	185.000000
831.217407	189.000000
831.252075	201.000000
831.286621	185.000000
831.321289	177.000000
831.355896	184.000000
831.390564	192.000000
831.425110	187.000000
831.459778	190.000000
831.494324	201.000000
831.528931	186.000000
831.563599	189.000000
831.598145	181.000000
831.632751	184.000000
831.667419	185.000000
831.701965	185.000000
831.736572	186.000000
831.771179	176.000000
831.805786	183.000000
831.840393	191.000000
831.874939	177.000000
831.909546	193.000000
831.944153	176.000000
831.978760	183.000000
832.013306	180.000000
832.047913	195.000000
832.082458	197.000000
832.117065	180.000000
832.151672	192.000000
832.186218	185.000000
832.220825	190.000000
832.255432	173.000000
832.289978	185.000000
832.324585	185.000000
832.359192	191.000000
832.393677	183.000000
832.428284	188.000000
832.462830	182.000000
832.497437	182.000000
832.531982	187.000000
832.566589	177.000000
832.601135	184.000000
832.635681	180.000000
832.670227	179.000000
832.704773	195.000000
832.739380	187.000000
832.773926	183.000000
832.808472	183.000000
832.843079	185.000000
832.877563	181.000000
832.912170	180.000000
832.946716	175.000000
832.981201	190.000000
833.015808	188.000000
833.050293	188.000000
833.084839	175.000000
833.119446	185.000000
833.153992	190.000000
833.188477	184.000000
833.223022	181.000000
833.257568	189.000000
833.292114	193.000000
833.326660	198.000000
833.361145	181.000000
833.395691	180.000000
833.430237	185.000000
833.464783	189.000000
833.499329	185.000000
833.533875	180.000000
833.568359	190.000000
833.602905	189.000000
833.637390	191.000000
833.671875	179.000000
833.706421	188.000000
833.740906	182.000000
833.775452	176.000000
833.809998	179.000000
833.844482	195.000000
833.879028	183.000000
833.913513	180.000000
833.947998	185.000000
833.982544	181.000000
834.017090	177.000000
834.051514	177.000000
834.086060	185.000000
834.120544	183.000000
834.155029	187.000000
834.189575	185.000000
834.223999	186.000000
834.258545	186.000000
834.293030	185.000000
834.327515	184.000000
834.362000	179.000000
834.396545	191.000000
834.430969	183.000000
834.465454	191.000000
834.500000	178.000000
834.534424	182.000000
834.568970	173.000000
834.603455	175.000000
834.637878	177.000000
834.672363	184.000000
834.706909	182.000000
834.741333	182.000000
834.775818	178.000000
834.810242	180.000000
834.844727	184.000000
834.879211	181.000000
834.913635	185.000000
834.948181	188.000000
834.982666	186.000000
835.017090	182.000000
835.051575	187.000000
835.086060	183.000000
835.120483	190.000000
835.154907	189.000000
835.189331	184.000000
835.223816	191.000000
835.258301	177.000000
835.292786	181.000000
835.327209	191.000000
835.361694	180.000000
835.396057	182.000000
835.430542	187.000000
835.465027	188.000000
835.499390	181.000000
835.533875	209.000000
835.568359	177.000000
835.602722	177.000000
835.637207	183.000000
835.671692	178.000000
835.706055	198.000000
835.740540	188.000000
835.774902	186.000000
835.809387	190.000000
835.843811	177.000000
835.878235	192.000000
835.912659	176.000000
835.947083	184.000000
835.981506	181.000000
836.015930	176.000000
836.050354	189.000000
836.084778	193.000000
836.119202	189.000000
836.153625	198.000000
836.187988	174.000000
836.222473	183.000000
836.256897	185.000000
836.291260	182.000000
836.325684	184.000000
836.360046	182.000000
836.394470	181.000000
836.428894	189.000000
836.463318	179.000000
836.497681	190.000000
836.532104	188.000000
836.566467	184.000000
836.600891	183.000000
836.635315	190.000000
836.669678	186.000000
836.704102	188.000000
836.738525	187.000000
836.772888	176.000000
836.807251	183.000000
836.841675	189.000000
836.876038	179.000000
836.910461	183.000000
836.944763	192.000000
836.979187	184.000000
837.013611	191.000000
837.047974	179.000000
837.082336	199.000000
837.116699	189.000000
837.151062	187.000000
837.185486	178.000000
837.219849	187.000000
837.254211	190.000000
837.288574	188.000000
837.322937	179.000000
837.357300	177.000000
837.391663	199.000000
837.426086	190.000000
837.460388	182.000000
837.494751	189.000000
837.529114	180.000000
837.563477	192.000000
837.597839	188.000000
837.632141	181.000000
837.666565	180.000000
837.700928	184.000000
837.735229	184.000000
837.769592	189.000000
837.803955	191.000000
837.838257	180.000000
837.872620	177.000000
837.906982	191.000000
837.941284	184.000000
837.975647	183.000000
838.010010	186.000000
838.044312	180.000000
838.078674	181.000000
838.112976	185.000000
838.147339	185.000000
838.181702	185.000000
838.216003	195.000000
838.250366	187.000000
838.284668	188.000000
838.318970	179.000000
838.353333	183.000000
838.387634	185.000000
838.421936	189.000000
838.456299	185.000000
838.490601	190.000000
838.524902	190.000000
838.559265	190.000000
838.593567	191.000000
838.627869	183.000000
838.662170	187.000000
838.696472	178.000000
838.730774	183.000000
838.765137	186.000000
838.799377	167.000000
838.833740	193.000000
838.868042	192.000000
838.902283	182.000000
838.936646	189.000000
838.970947	187.000000
839.005188	195.000000
839.039551	180.000000
839.073792	191.000000
839.108093	185.000000
839.142395	191.000000
839.176697	174.000000
839.210937	188.000000
839.245300	199.000000
839.279541	174.000000
839.313843	185.000000
839.348145	184.000000
839.382385	189.000000
839.416687	191.000000
839.450989	187.000000
839.485229	183.000000
839.519531	183.000000
839.553833	193.000000
839.588013	186.000000
839.622314	186.000000
839.656555	188.000000
839.690857	182.000000
839.725159	182.000000
839.759460	181.000000
839.793640	181.000000
839.827942	183.000000
839.862183	181.000000
839.896423	182.000000
839.930725	197.000000
839.964966	193.000000
839.999207	193.000000
840.033508	193.000000
840.067688	182.000000
840.101990	194.000000
840.136230	185.000000
840.170471	197.000000
840.204712	184.000000
840.238953	182.000000
840.273193	188.000000
840.307434	186.000000
840.341736	185.000000
840.375916	180.000000
840.410217	184.000000
840.444397	191.000000
840.478638	186.000000
840.512878	191.000000
840.547119	188.000000
840.581360	190.000000
840.615601	193.000000
840.649780	199.000000
840.684021	185.000000
840.718262	192.000000
840.752441	190.000000
840.786682	186.000000
840.820862	187.000000
840.855103	196.000000
840.889343	186.000000
840.923584	192.000000
840.957764	187.000000
840.992004	192.000000
841.026184	197.000000
841.060425	184.000000
841.094666	184.000000
841.128845	193.000000
841.163025	187.000000
841.197266	189.000000
841.231445	184.000000
841.265686	189.000000
841.299866	178.000000
841.334045	193.000000
841.368286	182.000000
841.402405	194.000000
841.436646	187.000000
841.470825	186.000000
841.505005	184.000000
841.539185	177.000000
841.573425	181.000000
841.607544	190.000000
841.641785	185.000000
841.675964	181.000000
841.710144	186.000000
841.744324	180.000000
841.778503	185.000000
841.812683	181.000000
841.846863	190.000000
841.881042	191.000000
841.915222	184.000000
841.949402	199.000000
841.983521	178.000000
842.017700	190.000000
842.051880	185.000000
842.086060	191.000000
842.120239	187.000000
842.154419	185.000000
842.188538	187.000000
842.222717	187.000000
842.256897	193.000000
842.291016	189.000000
842.325195	189.000000
842.359375	197.000000
842.393494	198.000000
842.427673	184.000000
842.461853	186.000000
842.495911	197.000000
842.530090	191.000000
842.564209	185.000000
842.598389	188.000000
842.632568	189.000000
842.666626	191.000000
842.700806	181.000000
842.734985	184.000000
842.769043	185.000000
842.803223	187.000000
842.837402	182.000000
842.871460	180.000000
842.905640	197.000000
842.939697	180.000000
842.973877	183.000000
843.007996	189.000000
843.042175	191.000000
843.076233	184.000000
843.110413	187.000000
843.144470	198.000000
843.178589	188.000000
843.212769	185.000000
843.246826	187.000000
843.280945	183.000000
843.315125	183.000000
843.349182	183.000000
843.383301	189.000000
843.417419	200.000000
843.451538	184.000000
843.485657	184.000000
843.519714	187.000000
843.553833	188.000000
843.587952	183.000000
843.622070	185.000000
843.656128	191.000000
843.690247	188.000000
843.724304	185.000000
843.758423	188.000000
843.792542	181.000000
843.826599	185.000000
843.860718	185.000000
843.894836	179.000000
843.928894	184.000000
843.963013	189.000000
843.997070	181.000000
844.031128	181.000000
844.065247	193.000000
844.099304	191.000000
844.133362	190.000000
844.167480	190.000000
844.201599	194.000000
844.235596	190.000000
844.269714	190.000000
844.303711	187.000000
844.337830	182.000000
844.371948	189.000000
844.405945	184.000000
844.440063	181.000000
844.474121	200.000000
844.508118	179.000000
844.542236	190.000000
844.576294	182.000000
844.610352	180.000000
844.644409	185.000000
844.678406	179.000000
844.712524	187.000000
844.746582	192.000000
844.780640	183.000000
844.814636	187.000000
844.848755	196.000000
844.882751	186.000000
844.916809	189.000000
844.950867	188.000000
844.984863	194.000000
845.018921	186.000000
845.052979	179.000000
845.086975	190.000000
845.121033	177.000000
845.155090	188.000000
845.189087	194.000000
845.223145	184.000000
845.257141	187.000000
845.291199	191.000000
845.325256	192.000000
845.359253	190.000000
845.393250	202.000000
845.427307	185.000000
845.461304	188.000000
845.495361	188.000000
845.529358	198.000000
845.563354	189.000000
845.597412	183.000000
845.631409	198.000000
845.665405	196.000000
845.699463	190.000000
845.733459	185.000000
845.767456	196.000000
845.801453	190.000000
845.835449	192.000000
845.869446	197.000000
845.903503	190.000000
845.937439	184.000000
845.971497	192.000000
846.005493	183.000000
846.039429	188.000000
846.073486	197.000000
846.107483	185.000000
846.141418	185.000000
846.175476	189.000000
846.209473	195.000000
846.243408	183.000000
846.277405	190.000000
846.311401	184.000000
846.345337	190.000000
846.379395	191.000000
846.413330	186.000000
846.447327	191.000000
846.481323	183.000000
846.515259	181.000000
846.549255	185.000000
846.583252	185.000000
846.617187	182.000000
846.651184	183.000000
846.685120	183.000000
846.719055	193.000000
846.753052	190.000000
846.786987	189.000000
846.820984	184.000000
846.854980	189.000000
846.888916	182.000000
846.922852	186.000000
846.956848	197.000000
846.990723	182.000000
847.024719	190.000000
847.058716	183.000000
847.092590	197.000000
847.126587	186.000000
847.160522	181.000000
847.194458	192.000000
847.228455	185.000000
847.262390	179.000000
847.296265	190.000000
847.330261	193.000000
847.364136	185.000000
847.398132	183.000000
847.432068	190.000000
847.466003	183.000000
847.499939	184.000000
847.533875	196.000000
847.567749	186.000000
847.601746	185.000000
847.635681	191.000000
847.669556	177.000000
847.703491	190.000000
847.737427	197.000000
847.771301	182.000000
847.805237	192.000000
847.839233	189.000000
847.873108	185.000000
847.907043	186.000000
847.940918	197.000000
847.974854	185.000000
848.008789	189.000000
848.042664	186.000000
848.076538	191.000000
848.110474	186.000000
848.144348	189.000000
848.178284	177.000000
848.212219	188.000000
848.246094	185.000000
848.279968	190.000000
848.313904	186.000000
848.347778	191.000000
848.381653	179.000000
848.415588	189.000000
848.449463	181.000000
848.483337	190.000000
848.517212	191.000000
848.551086	190.000000
848.585022	179.000000
848.618835	198.000000
848.652771	183.000000
848.686646	176.000000
848.720520	195.000000
848.754395	190.000000
848.788330	185.000000
848.822144	191.000000
848.856018	186.000000
848.889954	196.000000
848.923767	181.000000
848.957642	186.000000
848.991577	187.000000
849.025391	186.000000
849.059265	190.000000
849.093079	183.000000
849.126953	180.000000
849.160828	193.000000
849.194641	191.000000
849.228577	186.000000
849.262451	185.000000
849.296265	185.000000
849.330139	184.000000
849.364014	187.000000
849.397827	189.000000
849.431702	190.000000
849.465515	193.000000
849.499329	173.000000
849.533203	179.000000
849.567078	173.000000
849.600891	189.000000
849.634766	185.000000
849.668518	193.000000
849.702393	186.000000
849.736267	182.000000
849.770020	194.000000
849.803894	189.000000
849.837769	184.000000
849.871521	188.000000
849.905396	186.000000
849.939270	189.000000
849.973022	181.000000
850.006897	189.000000
850.040710	185.000000
850.074524	192.000000
850.108337	181.000000
850.142151	193.000000
850.175964	192.000000
850.209778	186.000000
850.243530	176.000000
850.277405	187.000000
850.311218	184.000000
850.344971	180.000000
850.378845	193.000000
850.412659	185.000000
850.446411	187.000000
850.480225	187.000000
850.514038	187.000000
850.547791	186.000000
850.581665	187.000000
850.615417	184.000000
850.649231	190.000000
850.683044	190.000000
850.716858	186.000000
850.750610	185.000000
850.784424	189.000000
850.818176	180.000000
850.851929	186.000000
850.885742	188.000000
850.919495	187.000000
850.953308	198.000000
850.987122	197.000000
851.020874	177.000000
851.054626	185.000000
851.088440	190.000000
851.122192	190.000000
851.156006	190.000000
851.189697	190.000000
851.223511	178.000000
851.257263	193.000000
851.291077	190.000000
851.324829	185.000000
851.358582	183.000000
851.392334	187.000000
851.426086	181.000000
851.459900	196.000000
851.493591	188.000000
851.527344	186.000000
851.561157	184.000000
851.594849	189.000000
851.628662	184.000000
851.662415	197.000000
851.696106	184.000000
851.729858	189.000000
851.763611	179.000000
851.797363	189.000000
851.831116	176.000000
851.864868	193.000000
851.898560	190.000000
851.932312	183.000000
851.966064	188.000000
851.999817	190.000000
852.033569	181.000000
852.067261	195.000000
852.101013	181.000000
852.134766	184.000000
852.168457	175.000000
852.202209	192.000000
852.235901	178.000000
852.269592	191.000000
852.303345	197.000000
852.337036	189.000000
852.370789	182.000000
852.404541	191.000000
852.438171	183.000000
852.471924	187.000000
852.505676	182.000000
852.539307	189.000000
852.573059	182.000000
852.606812	186.000000
852.640442	186.000000
852.674194	194.000000
852.707886	197.000000
852.741577	192.000000
852.775269	187.000000
852.809021	186.000000
852.842651	189.000000
852.876404	191.000000
852.910034	187.000000
852.943787	196.000000
852.977478	193.000000
853.011108	183.000000
853.044861	182.000000
853.078552	200.000000
853.112183	190.000000
853.145874	187.000000
853.179626	180.000000
853.213257	189.000000
853.246948	187.000000
853.280640	191.000000
853.314270	183.000000
853.347961	194.000000
853.381653	190.000000
853.415283	191.000000
853.448975	181.000000
853.482605	188.000000
853.516296	189.000000
853.549988	178.000000
853.583618	189.000000
853.617310	186.000000
853.651001	187.000000
853.684631	181.000000
853.718323	186.000000
853.751953	192.000000
853.785583	177.000000
853.819275	191.000000
853.852966	187.000000
853.886536	179.000000
853.920227	188.000000
853.953918	189.000000
853.987488	188.000000
854.021179	191.000000
854.054749	196.000000
854.088440	190.000000
854.122131	186.000000
854.155701	190.000000
854.189331	185.000000
854.223022	194.000000
854.256592	192.000000
854.290283	185.000000
854.323914	193.000000
854.357483	187.000000
854.391174	189.000000
854.424744	199.000000
854.458374	188.000000
854.492065	200.000000
854.525696	185.000000
854.559265	193.000000
854.592896	201.000000
854.626465	190.000000
854.660095	189.000000
854.693787	192.000000
854.727356	185.000000
854.760986	193.000000
854.794617	187.000000
854.828186	186.000000
854.861816	189.000000
854.895447	193.000000
854.929016	186.000000
854.962585	192.000000
854.996155	195.000000
855.029785	185.000000
855.063416	184.000000
855.097046	198.000000
855.130615	180.000000
855.164185	192.000000
855.197754	182.000000
855.231384	188.000000
855.264954	183.000000
855.298523	193.000000
855.332153	188.000000
855.365723	194.000000
855.399292	184.000000
855.432922	184.000000
855.466492	187.000000
855.500061	182.000000
855.533630	185.000000
855.567200	194.000000
855.600769	190.000000
855.634338	191.000000
855.667969	181.000000
855.701477	185.000000
855.735046	181.000000
855.768616	178.000000
855.802185	189.000000
855.835754	203.000000
855.869324	174.000000
855.902893	187.000000
855.936401	195.000000
855.969971	187.000000
856.003540	180.000000
856.037109	195.000000
856.070618	184.000000
856.104187	180.000000
856.137695	187.000000
856.171265	177.000000
856.204834	190.000000
856.238403	195.000000
856.271912	183.000000
856.305481	191.000000
856.338989	183.000000
856.372559	191.000000
856.406128	189.000000
856.439636	190.000000
856.473145	181.000000
856.506653	195.000000
856.540222	189.000000
856.573792	196.000000
856.607300	196.000000
856.640808	179.000000
856.674377	189.000000
856.707825	215.000000
856.741394	195.000000
856.774902	184.000000
856.808472	184.000000
856.841980	188.000000
856.875488	192.000000
856.908936	181.000000
856.942505	190.000000
856.976013	183.000000
857.009521	188.000000
857.043030	188.000000
857.076477	185.000000
857.110046	195.000000
857.143555	189.000000
857.177063	188.000000
857.210571	187.000000
857.244080	180.000000
857.277527	191.000000
857.311035	183.000000
857.344543	192.000000
857.378052	185.000000
857.411499	198.000000
857.445068	199.000000
857.478516	188.000000
857.512024	184.000000
857.545532	187.000000
857.578979	185.000000
857.612427	186.000000
857.645874	186.000000
857.679382	190.000000
857.712891	191.000000
857.746399	187.000000
857.779846	190.000000
857.813354	197.000000
857.846741	190.000000
857.880249	181.000000
857.913757	190.000000
857.947266	193.000000
857.980652	189.000000
858.014160	185.000000
858.047546	191.000000
858.081055	185.000000
858.114563	197.000000
858.147949	180.000000
858.181458	192.000000
858.214844	187.000000
858.248352	180.000000
858.281799	193.000000
858.315308	203.000000
858.348694	190.000000
858.382141	195.000000
858.415588	190.000000
858.449036	193.000000
858.482483	188.000000
858.515930	188.000000
858.549377	181.000000
858.582825	200.000000
858.616211	187.000000
858.649658	191.000000
858.683105	181.000000
858.716553	187.000000
858.750000	178.000000
858.783386	187.000000
858.816833	182.000000
858.850281	186.000000
858.883728	187.000000
858.917114	193.000000
858.950562	196.000000
858.983948	193.000000
859.017395	192.000000
859.050781	186.000000
859.084167	180.000000
859.117615	183.000000
859.151062	193.000000
859.184448	183.000000
859.217834	189.000000
859.251282	193.000000
859.284668	179.000000
859.318054	179.000000
859.351440	185.000000
859.384888	197.000000
859.418274	178.000000
859.451721	183.000000
859.485046	189.000000
859.518494	190.000000
859.551819	184.000000
859.585266	190.000000
859.618652	188.000000
859.652039	179.000000
859.685425	183.000000
859.718811	182.000000
859.752197	178.000000
859.785583	190.000000
859.819031	192.000000
859.852356	190.000000
859.885742	183.000000
859.919067	183.000000
859.952454	187.000000
859.985901	193.000000
860.019287	187.000000
860.052612	0.000000
860.085999	0.000000
860.119324	0.000000
860.152710	0.000000
860.186096	0.000000
860.219421	0.000000
860.252808	0.000000
860.286133	0.000000
860.319519	0.000000
860.352905	0.000000
860.386292	0.000000
860.419617	0.000000
860.452942	0.000000
860.486267	0.000000
860.519653	0.000000
860.553040	0.000000
860.586365	0.000000
860.619690	0.000000
860.653076	0.000000
860.686340	0.000000
860.719727	0.000000
860.753113	0.000000
860.786377	0.000000
860.819763	0.000000
860.853027	0.000000
860.886414	0.000000
860.919739	0.000000
860.953125	0.000000
860.986389	0.000000
861.019714	0.000000
861.053040	0.000000
861.086365	0.000000
861.119690	0.000000
861.153076	0.000000
861.186340	0.000000
861.219666	0.000000
861.252930	0.000000
861.286316	0.000000
861.319641	0.000000
861.352905	0.000000
861.386230	0.000000
861.419495	0.000000
861.452820	0.000000
861.486145	0.000000
861.519470	0.000000
861.552734	0.000000
861.586060	0.000000
861.619324	0.000000
861.652649	0.000000
861.685974	0.000000
861.719238	0.000000
861.752563	0.000000
861.785828	0.000000
861.819092	0.000000
861.852417	0.000000
861.885742	0.000000
861.918945	0.000000
861.952271	0.000000
861.985535	0.000000
862.018799	0.000000
862.052124	0.000000
862.085449	0.000000
862.118652	0.000000
862.151978	0.000000
862.185181	0.000000
862.218506	0.000000
862.251770	0.000000
862.285034	0.000000
862.318298	0.000000
862.351562	0.000000
862.384827	0.000000
862.418091	0.000000
862.451355	0.000000
862.484619	0.000000
862.517883	0.000000
862.551086	0.000000
862.584351	0.000000
862.617676	0.000000
862.650940	0.000000
862.684143	0.000000
862.717407	0.000000
862.750610	0.000000
862.783875	0.000000
862.817139	0.000000
862.850342	0.000000
862.883606	0.000000
862.916870	0.000000
862.950073	0.000000
862.983337	0.000000
863.016602	0.000000
863.049805	0.000000
863.083069	0.000000
863.116211	0.000000
863.149475	0.000000
863.182739	0.000000
863.216003	0.000000
863.249146	0.000000
863.282410	0.000000
863.315613	0.000000
863.348816	0.000000
863.382080	0.000000
863.415222	0.000000
863.448486	0.000000
863.481689	0.000000
863.514893	0.000000
863.548157	0.000000
863.581360	0.000000
863.614502	0.000000
863.647766	0.000000
863.680908	0.000000
863.714172	0.000000
863.747375	0.000000
863.780579	0.000000
863.813721	0.000000
863.846985	0.000000
863.880127	0.000000
863.913330	0.000000
863.946533	0.000000
863.979675	0.000000
864.012939	0.000000
