Model Number: SPM-001-M   
Serial Number: 10090201
Firmware Version: 004.17.6
Exposure Time: 500000.000000us
Data Taken on: 27-08-2020 10:10:54.467
Wavelength	Amplitude
733.770752	0.000000
733.808716	0.000000
733.846619	0.000000
733.884583	0.000000
733.922546	0.000000
733.960449	0.000000
733.998413	0.000000
734.036377	0.000000
734.074219	0.000000
734.112183	0.000000
734.150085	0.000000
734.188049	0.000000
734.226013	0.000000
734.263916	0.000000
734.301819	0.000000
734.339783	0.000000
734.377686	0.000000
734.415588	0.000000
734.453552	0.000000
734.491455	0.000000
734.529419	0.000000
734.567322	0.000000
734.605225	0.000000
734.643127	0.000000
734.681091	0.000000
734.718994	0.000000
734.756897	0.000000
734.794800	0.000000
734.832703	0.000000
734.870667	0.000000
734.908508	0.000000
734.946472	0.000000
734.984375	0.000000
735.022278	0.000000
735.060181	0.000000
735.098083	0.000000
735.135986	0.000000
735.173889	0.000000
735.211792	0.000000
735.249695	0.000000
735.287598	0.000000
735.325439	0.000000
735.363403	0.000000
735.401306	0.000000
735.439148	0.000000
735.477051	0.000000
735.515015	0.000000
735.552856	0.000000
735.590759	0.000000
735.628662	0.000000
735.666504	0.000000
735.704407	0.000000
735.742310	0.000000
735.780212	0.000000
735.818115	0.000000
735.856018	0.000000
735.893860	0.000000
735.931763	0.000000
735.969604	0.000000
736.007507	0.000000
736.045410	0.000000
736.083252	0.000000
736.121094	0.000000
736.158997	0.000000
736.196838	0.000000
736.234741	0.000000
736.272644	0.000000
736.310486	0.000000
736.348389	0.000000
736.386230	0.000000
736.424072	0.000000
736.461975	0.000000
736.499878	0.000000
736.537720	0.000000
736.575562	0.000000
736.613403	0.000000
736.651306	0.000000
736.689148	0.000000
736.726990	0.000000
736.764893	0.000000
736.802734	0.000000
736.840576	0.000000
736.878418	0.000000
736.916321	0.000000
736.954102	0.000000
736.992004	0.000000
737.029846	0.000000
737.067688	0.000000
737.105530	0.000000
737.143372	0.000000
737.181213	0.000000
737.219116	0.000000
737.256897	0.000000
737.294739	0.000000
737.332642	0.000000
737.370422	0.000000
737.408325	0.000000
737.446167	0.000000
737.483948	0.000000
737.521790	0.000000
737.559692	0.000000
737.597473	0.000000
737.635315	0.000000
737.673157	0.000000
737.710999	0.000000
737.748840	0.000000
737.786621	0.000000
737.824463	0.000000
737.862305	0.000000
737.900085	0.000000
737.937927	0.000000
737.975769	0.000000
738.013550	0.000000
738.051392	0.000000
738.089233	0.000000
738.127014	0.000000
738.164856	0.000000
738.202698	0.000000
738.240479	0.000000
738.278320	0.000000
738.316162	0.000000
738.353943	0.000000
738.391785	0.000000
738.429565	0.000000
738.467407	0.000000
738.505188	0.000000
738.542969	0.000000
738.580811	0.000000
738.618652	0.000000
738.656372	0.000000
738.694214	0.000000
738.732056	0.000000
738.769836	0.000000
738.807617	0.000000
738.845459	0.000000
738.883240	0.000000
738.921021	0.000000
738.958862	0.000000
738.996582	0.000000
739.034424	0.000000
739.072205	0.000000
739.109985	0.000000
739.147827	0.000000
739.185547	0.000000
739.223389	0.000000
739.261169	0.000000
739.298889	0.000000
739.336731	0.000000
739.374512	0.000000
739.412292	0.000000
739.450073	0.000000
739.487854	0.000000
739.525635	0.000000
739.563416	0.000000
739.601135	0.000000
739.638977	0.000000
739.676758	0.000000
739.714478	0.000000
739.752258	0.000000
739.790100	0.000000
739.827820	0.000000
739.865601	0.000000
739.903381	0.000000
739.941101	0.000000
739.978882	186.000000
740.016724	189.000000
740.054443	189.000000
740.092224	185.000000
740.130005	181.000000
740.167725	184.000000
740.205505	183.000000
740.243225	192.000000
740.281006	184.000000
740.318787	181.000000
740.356506	193.000000
740.394287	191.000000
740.432068	184.000000
740.469727	183.000000
740.507507	192.000000
740.545288	184.000000
740.583008	193.000000
740.620789	184.000000
740.658569	178.000000
740.696228	182.000000
740.734009	189.000000
740.771790	176.000000
740.809509	193.000000
740.847229	177.000000
740.884949	187.000000
740.922729	180.000000
740.960449	183.000000
740.998169	178.000000
741.035950	181.000000
741.073669	185.000000
741.111389	183.000000
741.149170	191.000000
741.186890	198.000000
741.224609	185.000000
741.262329	187.000000
741.300110	195.000000
741.337769	183.000000
741.375549	177.000000
741.413208	184.000000
741.450989	181.000000
741.488708	180.000000
741.526367	179.000000
741.564148	190.000000
741.601868	188.000000
741.639526	182.000000
741.677307	183.000000
741.715027	187.000000
741.752686	180.000000
741.790466	196.000000
741.828186	191.000000
741.865845	181.000000
741.903564	177.000000
741.941345	189.000000
741.979004	184.000000
742.016724	196.000000
742.054382	189.000000
742.092102	191.000000
742.129822	183.000000
742.167480	180.000000
742.205200	181.000000
742.242920	187.000000
742.280640	192.000000
742.318359	184.000000
742.356079	181.000000
742.393738	187.000000
742.431396	184.000000
742.469116	189.000000
742.506775	179.000000
742.544495	189.000000
742.582214	191.000000
742.619873	184.000000
742.657593	196.000000
742.695251	189.000000
742.732971	189.000000
742.770630	187.000000
742.808289	189.000000
742.846008	185.000000
742.883728	190.000000
742.921326	188.000000
742.959045	184.000000
742.996765	183.000000
743.034424	190.000000
743.072083	187.000000
743.109802	186.000000
743.147400	177.000000
743.185120	188.000000
743.222839	181.000000
743.260437	192.000000
743.298157	183.000000
743.335754	178.000000
743.373474	185.000000
743.411133	178.000000
743.448792	179.000000
743.486450	187.000000
743.524170	181.000000
743.561768	186.000000
743.599487	190.000000
743.637146	200.000000
743.674744	177.000000
743.712463	185.000000
743.750122	187.000000
743.787720	189.000000
743.825439	184.000000
743.863037	184.000000
743.900696	186.000000
743.938416	218.000000
743.976013	188.000000
744.013672	197.000000
744.051331	189.000000
744.088928	196.000000
744.126587	193.000000
744.164307	188.000000
744.201904	189.000000
744.239563	187.000000
744.277222	187.000000
744.314819	183.000000
744.352478	193.000000
744.390137	191.000000
744.427734	189.000000
744.465393	182.000000
744.502991	183.000000
744.540649	187.000000
744.578308	187.000000
744.615906	183.000000
744.653564	177.000000
744.691223	186.000000
744.728821	183.000000
744.766418	185.000000
744.804077	185.000000
744.841675	183.000000
744.879333	181.000000
744.916992	181.000000
744.954529	183.000000
744.992187	188.000000
745.029785	184.000000
745.067444	182.000000
745.105042	188.000000
745.142639	185.000000
745.180298	195.000000
745.217896	182.000000
745.255493	182.000000
745.293152	188.000000
745.330750	190.000000
745.368347	193.000000
745.405945	190.000000
745.443604	184.000000
745.481140	190.000000
745.518799	184.000000
745.556396	191.000000
745.593994	186.000000
745.631592	185.000000
745.669189	182.000000
745.706787	187.000000
745.744385	187.000000
745.781982	198.000000
745.819580	179.000000
745.857178	183.000000
745.894775	189.000000
745.932373	187.000000
745.969971	189.000000
746.007568	174.000000
746.045166	191.000000
746.082764	190.000000
746.120300	192.000000
746.157898	191.000000
746.195557	189.000000
746.233093	178.000000
746.270691	189.000000
746.308228	188.000000
746.345825	194.000000
746.383423	190.000000
746.420959	186.000000
746.458557	182.000000
746.496155	182.000000
746.533691	185.000000
746.571289	183.000000
746.608887	186.000000
746.646423	189.000000
746.684021	186.000000
746.721619	183.000000
746.759155	183.000000
746.796753	182.000000
746.834351	177.000000
746.871826	183.000000
746.909424	191.000000
746.946960	189.000000
746.984558	179.000000
747.022156	186.000000
747.059631	188.000000
747.097229	189.000000
747.134827	185.000000
747.172363	189.000000
747.209900	187.000000
747.247498	180.000000
747.285034	189.000000
747.322571	194.000000
747.360168	181.000000
747.397644	178.000000
747.435242	192.000000
747.472778	194.000000
747.510315	182.000000
747.547913	187.000000
747.585388	193.000000
747.622925	183.000000
747.660522	178.000000
747.697998	185.000000
747.735596	183.000000
747.773132	186.000000
747.810669	186.000000
747.848206	186.000000
747.885742	181.000000
747.923279	181.000000
747.960815	187.000000
747.998352	190.000000
748.035889	190.000000
748.073425	193.000000
748.110901	185.000000
748.148437	179.000000
748.185974	190.000000
748.223511	197.000000
748.261047	192.000000
748.298584	189.000000
748.336060	190.000000
748.373596	186.000000
748.411133	205.000000
748.448608	181.000000
748.486145	192.000000
748.523682	195.000000
748.561218	198.000000
748.598755	185.000000
748.636292	189.000000
748.673706	184.000000
748.711243	195.000000
748.748718	185.000000
748.786255	190.000000
748.823792	187.000000
748.861267	182.000000
748.898804	187.000000
748.936340	186.000000
748.973816	182.000000
749.011292	192.000000
749.048828	186.000000
749.086304	187.000000
749.123840	200.000000
749.161316	184.000000
749.198792	192.000000
749.236328	191.000000
749.273743	186.000000
749.311279	185.000000
749.348816	188.000000
749.386230	184.000000
749.423767	175.000000
749.461304	192.000000
749.498718	189.000000
749.536255	194.000000
749.573730	196.000000
749.611206	189.000000
749.648682	183.000000
749.686218	188.000000
749.723633	192.000000
749.761169	183.000000
749.798645	182.000000
749.836060	188.000000
749.873596	179.000000
749.911011	187.000000
749.948547	193.000000
749.986023	188.000000
750.023437	187.000000
750.060913	178.000000
750.098450	185.000000
750.135864	182.000000
750.173340	187.000000
750.210815	192.000000
750.248291	181.000000
750.285767	185.000000
750.323242	197.000000
750.360657	185.000000
750.398132	183.000000
750.435608	189.000000
750.473022	187.000000
750.510498	181.000000
750.547974	182.000000
750.585449	183.000000
750.622925	178.000000
750.660339	195.000000
750.697815	188.000000
750.735291	183.000000
750.772644	192.000000
750.810120	182.000000
750.847595	186.000000
750.885010	177.000000
750.922485	193.000000
750.959961	186.000000
750.997375	190.000000
751.034851	190.000000
751.072266	191.000000
751.109680	175.000000
751.147156	192.000000
751.184570	184.000000
751.221985	189.000000
751.259460	177.000000
751.296875	189.000000
751.334290	187.000000
751.371765	192.000000
751.409180	189.000000
751.446594	193.000000
751.484070	189.000000
751.521423	186.000000
751.558899	187.000000
751.596375	195.000000
751.633728	193.000000
751.671204	198.000000
751.708618	183.000000
751.746033	187.000000
751.783447	182.000000
751.820801	183.000000
751.858276	189.000000
751.895691	185.000000
751.933105	186.000000
751.970520	182.000000
752.007935	182.000000
752.045349	189.000000
752.082764	189.000000
752.120178	184.000000
752.157532	184.000000
752.195007	183.000000
752.232422	191.000000
752.269775	190.000000
752.307190	194.000000
752.344543	180.000000
752.382019	187.000000
752.419434	182.000000
752.456787	186.000000
752.494202	191.000000
752.531616	188.000000
752.568970	190.000000
752.606384	187.000000
752.643799	185.000000
752.681152	195.000000
752.718567	185.000000
752.755981	177.000000
752.793335	182.000000
752.830750	179.000000
752.868164	191.000000
752.905518	181.000000
752.942932	189.000000
752.980225	184.000000
753.017639	190.000000
753.055054	191.000000
753.092407	189.000000
753.129822	191.000000
753.167175	195.000000
753.204529	187.000000
753.241943	184.000000
753.279358	186.000000
753.316650	189.000000
753.354065	189.000000
753.391479	193.000000
753.428772	198.000000
753.466187	192.000000
753.503479	180.000000
753.540894	186.000000
753.578308	177.000000
753.615601	185.000000
753.653015	193.000000
753.690369	185.000000
753.727722	185.000000
753.765076	183.000000
753.802490	177.000000
753.839783	181.000000
753.877136	182.000000
753.914551	197.000000
753.951843	182.000000
753.989258	193.000000
754.026611	183.000000
754.063904	192.000000
754.101257	179.000000
754.138611	178.000000
754.175964	187.000000
754.213318	198.000000
754.250610	178.000000
754.288025	184.000000
754.325378	178.000000
754.362671	192.000000
754.400024	184.000000
754.437378	195.000000
754.474670	194.000000
754.512085	185.000000
754.549438	186.000000
754.586731	182.000000
754.624084	182.000000
754.661438	180.000000
754.698730	189.000000
754.736084	186.000000
754.773376	182.000000
754.810730	189.000000
754.848083	180.000000
754.885315	195.000000
754.922668	179.000000
754.960022	185.000000
754.997314	194.000000
755.034668	185.000000
755.072021	189.000000
755.109253	186.000000
755.146606	192.000000
755.183960	185.000000
755.221252	193.000000
755.258545	191.000000
755.295898	195.000000
755.333191	197.000000
755.370544	192.000000
755.407776	186.000000
755.445129	191.000000
755.482422	192.000000
755.519714	186.000000
755.557068	183.000000
755.594360	182.000000
755.631653	196.000000
755.668945	198.000000
755.706299	191.000000
755.743530	204.000000
755.780884	198.000000
755.818176	192.000000
755.855408	194.000000
755.892761	193.000000
755.930054	189.000000
755.967346	194.000000
756.004639	196.000000
756.041870	191.000000
756.079224	194.000000
756.116516	188.000000
756.153748	191.000000
756.191040	200.000000
756.228394	189.000000
756.265625	191.000000
756.302917	192.000000
756.340210	186.000000
756.377441	190.000000
756.414795	201.000000
756.452087	191.000000
756.489319	187.000000
756.526611	196.000000
756.563843	197.000000
756.601135	195.000000
756.638428	202.000000
756.675659	186.000000
756.712952	190.000000
756.750244	197.000000
756.787476	198.000000
756.824768	194.000000
756.862061	194.000000
756.899292	241.000000
756.936584	196.000000
756.973816	207.000000
757.011047	204.000000
757.048340	193.000000
757.085632	197.000000
757.122864	208.000000
757.160156	190.000000
757.197327	203.000000
757.234619	202.000000
757.271912	196.000000
757.309082	200.000000
757.346375	195.000000
757.383667	203.000000
757.420837	204.000000
757.458130	202.000000
757.495422	195.000000
757.532593	200.000000
757.569885	194.000000
757.607117	196.000000
757.644348	201.000000
757.681580	211.000000
757.718811	188.000000
757.756042	201.000000
757.793335	199.000000
757.830505	193.000000
757.867798	200.000000
757.905029	192.000000
757.942200	197.000000
757.979492	192.000000
758.016724	198.000000
758.053894	195.000000
758.091187	215.000000
758.128418	198.000000
758.165588	199.000000
758.202820	207.000000
758.240112	203.000000
758.277283	206.000000
758.314514	204.000000
758.351685	193.000000
758.388916	208.000000
758.426147	205.000000
758.463379	210.000000
758.500610	204.000000
758.537842	202.000000
758.575012	206.000000
758.612244	193.000000
758.649475	218.000000
758.686646	198.000000
758.723877	205.000000
758.761108	214.000000
758.798279	200.000000
758.835510	202.000000
758.872742	213.000000
758.909851	207.000000
758.947083	206.000000
758.984253	206.000000
759.021484	206.000000
759.058716	211.000000
759.095886	205.000000
759.133057	206.000000
759.170288	202.000000
759.207458	204.000000
759.244690	216.000000
759.281860	212.000000
759.319031	206.000000
759.356262	207.000000
759.393433	202.000000
759.430603	205.000000
759.467773	205.000000
759.505005	209.000000
759.542175	213.000000
759.579346	200.000000
759.616516	203.000000
759.653687	209.000000
759.690918	204.000000
759.728027	207.000000
759.765259	213.000000
759.802429	211.000000
759.839539	211.000000
759.876770	218.000000
759.913940	214.000000
759.951111	202.000000
759.988281	209.000000
760.025452	207.000000
760.062561	200.000000
760.099792	217.000000
760.136963	217.000000
760.174072	206.000000
760.211243	205.000000
760.248413	208.000000
760.285583	209.000000
760.322754	223.000000
760.359863	214.000000
760.397034	215.000000
760.434204	207.000000
760.471375	213.000000
760.508545	209.000000
760.545715	206.000000
760.582825	207.000000
760.619995	212.000000
760.657166	210.000000
760.694275	223.000000
760.731445	216.000000
760.768555	217.000000
760.805664	217.000000
760.842834	214.000000
760.879944	219.000000
760.917114	216.000000
760.954285	216.000000
760.991394	212.000000
761.028564	229.000000
761.065674	214.000000
761.102783	214.000000
761.139954	221.000000
761.177124	221.000000
761.214172	233.000000
761.251343	222.000000
761.288452	220.000000
761.325562	225.000000
761.362732	216.000000
761.399841	225.000000
761.436951	226.000000
761.474121	218.000000
761.511169	220.000000
761.548340	231.000000
761.585449	227.000000
761.622559	224.000000
761.659668	224.000000
761.696838	233.000000
761.733887	228.000000
761.771057	220.000000
761.808167	224.000000
761.845276	229.000000
761.882385	241.000000
761.919434	228.000000
761.956604	245.000000
761.993713	223.000000
762.030762	240.000000
762.067871	229.000000
762.105042	232.000000
762.142090	235.000000
762.179199	236.000000
762.216309	233.000000
762.253418	250.000000
762.290527	241.000000
762.327637	241.000000
762.364685	226.000000
762.401794	239.000000
762.438904	237.000000
762.475952	235.000000
762.513062	229.000000
762.550110	235.000000
762.587219	247.000000
762.624329	241.000000
762.661377	249.000000
762.698486	239.000000
762.735596	237.000000
762.772644	235.000000
762.809753	230.000000
762.846863	237.000000
762.883911	244.000000
762.921021	240.000000
762.958069	240.000000
762.995117	244.000000
763.032227	247.000000
763.069336	238.000000
763.106323	239.000000
763.143433	238.000000
763.180481	249.000000
763.217590	246.000000
763.254639	238.000000
763.291687	240.000000
763.328735	252.000000
763.365845	241.000000
763.402893	245.000000
763.439941	246.000000
763.477051	252.000000
763.514038	253.000000
763.551147	251.000000
763.588196	253.000000
763.625244	253.000000
763.662292	255.000000
763.699402	258.000000
763.736389	248.000000
763.773499	262.000000
763.810486	249.000000
763.847534	254.000000
763.884644	260.000000
763.921631	254.000000
763.958679	265.000000
763.995728	259.000000
764.032776	266.000000
764.069824	253.000000
764.106873	261.000000
764.143860	262.000000
764.180969	248.000000
764.218018	262.000000
764.255005	252.000000
764.292053	264.000000
764.329102	274.000000
764.366089	274.000000
764.403137	269.000000
764.440125	269.000000
764.477173	269.000000
764.514221	269.000000
764.551208	266.000000
764.588257	260.000000
764.625305	267.000000
764.662292	280.000000
764.699341	276.000000
764.736389	272.000000
764.773376	283.000000
764.810425	276.000000
764.847473	285.000000
764.884399	275.000000
764.921448	290.000000
764.958435	289.000000
764.995483	279.000000
765.032532	297.000000
765.069458	277.000000
765.106506	275.000000
765.143555	277.000000
765.180481	283.000000
765.217529	293.000000
765.254578	271.000000
765.291504	284.000000
765.328552	282.000000
765.365540	283.000000
765.402527	295.000000
765.439575	285.000000
765.476501	275.000000
765.513550	277.000000
765.550537	282.000000
765.587463	292.000000
765.624512	279.000000
765.661499	277.000000
765.698486	289.000000
765.735474	281.000000
765.772461	280.000000
765.809448	291.000000
765.846436	291.000000
765.883423	297.000000
765.920410	293.000000
765.957397	289.000000
765.994385	294.000000
766.031311	303.000000
766.068359	296.000000
766.105286	291.000000
766.142273	297.000000
766.179260	292.000000
766.216187	291.000000
766.253174	283.000000
766.290161	292.000000
766.327148	294.000000
766.364136	298.000000
766.401123	313.000000
766.438049	297.000000
766.475037	316.000000
766.512024	310.000000
766.548950	331.000000
766.585937	315.000000
766.622864	318.000000
766.659790	315.000000
766.696777	309.000000
766.733704	316.000000
766.770691	320.000000
766.807678	328.000000
766.844604	327.000000
766.881531	329.000000
766.918518	335.000000
766.955444	333.000000
766.992432	327.000000
767.029358	335.000000
767.066284	333.000000
767.103271	336.000000
767.140198	367.000000
767.177124	353.000000
767.214050	335.000000
767.251038	340.000000
767.287964	340.000000
767.324890	338.000000
767.361816	331.000000
767.398743	346.000000
767.435730	343.000000
767.472595	355.000000
767.509583	358.000000
767.546509	351.000000
767.583374	354.000000
767.620361	346.000000
767.657288	348.000000
767.694214	345.000000
767.731140	350.000000
767.768066	359.000000
767.804993	355.000000
767.841919	347.000000
767.878845	357.000000
767.915710	361.000000
767.952698	356.000000
767.989563	354.000000
768.026489	362.000000
768.063416	355.000000
768.100281	353.000000
768.137207	371.000000
768.174133	365.000000
768.211060	373.000000
768.247986	374.000000
768.284912	370.000000
768.321777	367.000000
768.358704	364.000000
768.395630	369.000000
768.432495	366.000000
768.469421	378.000000
768.506348	377.000000
768.543152	382.000000
768.580078	380.000000
768.616943	381.000000
768.653870	385.000000
768.690796	384.000000
768.727661	389.000000
768.764587	382.000000
768.801453	374.000000
768.838318	385.000000
768.875244	391.000000
768.912109	403.000000
768.948975	389.000000
768.985901	394.000000
769.022766	392.000000
769.059631	402.000000
769.096558	395.000000
769.133362	406.000000
769.170288	395.000000
769.207214	404.000000
769.244019	394.000000
769.280945	404.000000
769.317810	408.000000
769.354675	413.000000
769.391541	411.000000
769.428406	412.000000
769.465271	421.000000
769.502136	407.000000
769.539062	411.000000
769.575867	418.000000
769.612732	419.000000
769.649597	419.000000
769.686462	425.000000
769.723328	420.000000
769.760193	418.000000
769.797058	423.000000
769.833923	429.000000
769.870728	428.000000
769.907593	433.000000
769.944519	429.000000
769.981323	437.000000
770.018188	433.000000
770.055054	430.000000
770.091858	438.000000
770.128723	446.000000
770.165588	455.000000
770.202393	428.000000
770.239258	444.000000
770.276062	438.000000
770.312927	439.000000
770.349792	455.000000
770.386597	447.000000
770.423462	457.000000
770.460327	473.000000
770.497131	445.000000
770.533997	447.000000
770.570862	463.000000
770.607605	465.000000
770.644470	458.000000
770.681335	462.000000
770.718140	468.000000
770.754944	465.000000
770.791809	456.000000
770.828613	461.000000
770.865479	467.000000
770.902222	470.000000
770.939087	466.000000
770.975952	461.000000
771.012695	466.000000
771.049561	478.000000
771.086365	466.000000
771.123169	461.000000
771.159973	468.000000
771.196838	470.000000
771.233582	482.000000
771.270447	469.000000
771.307251	483.000000
771.344055	469.000000
771.380859	477.000000
771.417664	477.000000
771.454468	481.000000
771.491272	487.000000
771.528076	484.000000
771.564880	485.000000
771.601685	492.000000
771.638428	489.000000
771.675293	491.000000
771.712097	475.000000
771.748840	501.000000
771.785645	484.000000
771.822449	494.000000
771.859253	506.000000
771.896057	505.000000
771.932861	513.000000
771.969604	511.000000
772.006409	507.000000
772.043213	521.000000
772.079956	512.000000
772.116760	517.000000
772.153503	513.000000
772.190308	531.000000
772.227112	515.000000
772.263855	512.000000
772.300659	517.000000
772.337463	534.000000
772.374207	521.000000
772.411011	526.000000
772.447754	531.000000
772.484497	531.000000
772.521301	530.000000
772.558105	531.000000
772.594849	526.000000
772.631592	548.000000
772.668396	546.000000
772.705139	542.000000
772.741882	545.000000
772.778625	554.000000
772.815430	566.000000
772.852173	561.000000
772.888916	575.000000
772.925720	583.000000
772.962463	574.000000
772.999207	566.000000
773.035950	576.000000
773.072754	584.000000
773.109436	582.000000
773.146240	590.000000
773.182922	576.000000
773.219727	587.000000
773.256470	579.000000
773.293152	578.000000
773.329956	581.000000
773.366699	594.000000
773.403381	584.000000
773.440186	583.000000
773.476929	586.000000
773.513611	589.000000
773.550354	603.000000
773.587158	604.000000
773.623840	598.000000
773.660583	591.000000
773.697327	609.000000
773.734009	608.000000
773.770813	613.000000
773.807495	616.000000
773.844238	612.000000
773.880981	627.000000
773.917664	619.000000
773.954407	625.000000
773.991150	623.000000
774.027832	630.000000
774.064575	626.000000
774.101318	626.000000
774.138000	628.000000
774.174744	629.000000
774.211487	647.000000
774.248108	645.000000
774.284851	649.000000
774.321594	645.000000
774.358276	635.000000
774.395020	651.000000
774.431702	654.000000
774.468384	661.000000
774.505127	655.000000
774.541809	669.000000
774.578491	675.000000
774.615234	672.000000
774.651917	661.000000
774.688599	672.000000
774.725342	679.000000
774.762024	682.000000
774.798706	665.000000
774.835449	661.000000
774.872070	676.000000
774.908813	695.000000
774.945496	688.000000
774.982178	700.000000
775.018860	688.000000
775.055542	684.000000
775.092224	675.000000
775.128967	718.000000
775.165588	714.000000
775.202271	699.000000
775.239014	697.000000
775.275635	708.000000
775.312317	695.000000
775.349060	712.000000
775.385681	717.000000
775.422363	716.000000
775.459045	725.000000
775.495667	711.000000
775.532410	710.000000
775.569092	712.000000
775.605713	731.000000
775.642395	738.000000
775.679016	725.000000
775.715698	732.000000
775.752380	721.000000
775.789001	715.000000
775.825684	735.000000
775.862366	737.000000
775.898987	741.000000
775.935669	727.000000
775.972351	737.000000
776.008972	739.000000
776.045654	739.000000
776.082336	750.000000
776.118958	747.000000
776.155640	743.000000
776.192322	738.000000
776.228882	745.000000
776.265564	745.000000
776.302185	750.000000
776.338867	758.000000
776.375488	748.000000
776.412109	754.000000
776.448792	756.000000
776.485413	766.000000
776.522034	766.000000
776.558716	768.000000
776.595337	756.000000
776.631958	758.000000
776.668579	747.000000
776.705261	761.000000
776.741882	755.000000
776.778503	773.000000
776.815186	777.000000
776.851746	766.000000
776.888367	750.000000
776.924988	778.000000
776.961609	758.000000
776.998291	780.000000
777.034851	766.000000
777.071472	779.000000
777.108154	761.000000
777.144714	777.000000
777.181335	776.000000
777.218018	779.000000
777.254578	785.000000
777.291199	800.000000
777.327759	808.000000
777.364380	810.000000
777.401062	820.000000
777.437622	828.000000
777.474243	838.000000
777.510864	846.000000
777.547424	832.000000
777.584045	840.000000
777.620667	837.000000
777.657227	835.000000
777.693848	842.000000
777.730469	867.000000
777.767029	847.000000
777.803650	862.000000
777.840271	848.000000
777.876831	841.000000
777.913452	869.000000
777.950012	854.000000
777.986633	852.000000
778.023193	849.000000
778.059753	843.000000
778.096375	835.000000
778.132996	859.000000
778.169556	841.000000
778.206116	850.000000
778.242737	847.000000
778.279297	862.000000
778.315857	850.000000
778.352478	870.000000
778.389038	878.000000
778.425598	874.000000
778.462219	899.000000
778.498718	885.000000
778.535339	887.000000
778.571838	902.000000
778.608459	902.000000
778.645020	890.000000
778.681580	902.000000
778.718140	904.000000
778.754761	898.000000
778.791260	909.000000
778.827881	918.000000
778.864441	892.000000
778.900940	898.000000
778.937561	901.000000
778.974121	912.000000
779.010620	908.000000
779.047241	908.000000
779.083801	947.000000
779.120300	944.000000
779.156860	957.000000
779.193359	941.000000
779.229980	959.000000
779.266541	962.000000
779.303040	965.000000
779.339600	966.000000
779.376160	961.000000
779.412659	971.000000
779.449219	987.000000
779.485779	987.000000
779.522278	982.000000
779.558838	967.000000
779.595398	988.000000
779.631897	968.000000
779.668457	982.000000
779.705017	991.000000
779.741516	986.000000
779.778076	965.000000
779.814575	971.000000
779.851074	970.000000
779.887634	960.000000
779.924133	995.000000
779.960693	975.000000
779.997253	978.000000
780.033691	977.000000
780.070251	971.000000
780.106812	1001.000000
780.143250	1006.000000
780.179810	1005.000000
780.216370	1020.000000
780.252808	1008.000000
780.289368	1017.000000
780.325867	1039.000000
780.362366	1036.000000
780.398865	1058.000000
780.435364	1061.000000
780.471863	1063.000000
780.508423	1046.000000
780.544861	1053.000000
780.581421	1070.000000
780.617920	1063.000000
780.654419	1062.000000
780.690918	1048.000000
780.727417	1056.000000
780.763916	1052.000000
780.800415	1059.000000
780.836914	1049.000000
780.873352	1076.000000
780.909912	1072.000000
780.946411	1060.000000
780.982849	1071.000000
781.019348	1072.000000
781.055786	1074.000000
781.092346	1072.000000
781.128845	1079.000000
781.165283	1084.000000
781.201782	1071.000000
781.238281	1073.000000
781.274719	1095.000000
781.311218	1106.000000
781.347717	1140.000000
781.384155	1113.000000
781.420654	1120.000000
781.457092	1138.000000
781.493591	1125.000000
781.530090	1123.000000
781.566528	1138.000000
781.602966	1129.000000
781.639465	1133.000000
781.675903	1127.000000
781.712402	1126.000000
781.748901	1139.000000
781.785278	1117.000000
781.821777	1118.000000
781.858276	1114.000000
781.894714	1094.000000
781.931152	1092.000000
781.967651	1083.000000
782.004089	1082.000000
782.040527	1092.000000
782.076965	1097.000000
782.113403	1093.000000
782.149902	1077.000000
782.186340	1071.000000
782.222778	1085.000000
782.259277	1069.000000
782.295654	1073.000000
782.332092	1084.000000
782.368591	1079.000000
782.404968	1073.000000
782.441467	1087.000000
782.477905	1080.000000
782.514282	1069.000000
782.550781	1032.000000
782.587219	960.000000
782.623596	871.000000
782.660095	771.000000
782.696472	674.000000
782.732910	579.000000
782.769348	494.000000
782.805786	431.000000
782.842224	379.000000
782.878662	340.000000
782.915039	311.000000
782.951477	292.000000
782.987915	274.000000
783.024292	267.000000
783.060730	260.000000
783.097168	251.000000
783.133545	249.000000
783.169983	269.000000
783.206421	285.000000
783.242798	346.000000
783.279236	477.000000
783.315613	669.000000
783.352051	855.000000
783.388489	1001.000000
783.424866	1068.000000
783.461304	1099.000000
783.497681	1115.000000
783.534058	1103.000000
783.570496	1107.000000
783.606934	1118.000000
783.643250	1136.000000
783.679687	1137.000000
783.716125	1129.000000
783.752441	1130.000000
783.788879	1121.000000
783.825317	1097.000000
783.861633	1053.000000
783.898071	958.000000
783.934448	873.000000
783.970825	767.000000
784.007263	665.000000
784.043579	603.000000
784.080017	546.000000
784.116394	465.000000
784.152710	414.000000
784.189148	393.000000
784.225525	354.000000
784.261902	326.000000
784.298279	303.000000
784.334656	275.000000
784.371033	263.000000
784.407410	269.000000
784.443787	267.000000
784.480164	273.000000
784.516541	284.000000
784.552856	345.000000
784.589233	464.000000
784.625610	647.000000
784.661987	892.000000
784.698364	1058.000000
784.734741	1155.000000
784.771057	1188.000000
784.807434	1219.000000
784.843811	1209.000000
784.880127	1189.000000
784.916504	1222.000000
784.952881	1259.000000
784.989197	1264.000000
785.025574	1287.000000
785.061951	1287.000000
785.098267	1321.000000
785.134644	1307.000000
785.170959	1309.000000
785.207275	1363.000000
785.243652	1399.000000
785.279968	1374.000000
785.316345	1330.000000
785.352722	1324.000000
785.388977	1332.000000
785.425354	1312.000000
785.461731	1318.000000
785.498047	1314.000000
785.534363	1275.000000
785.570679	1230.000000
785.606995	1211.000000
785.643372	1201.000000
785.679687	1219.000000
785.716003	1210.000000
785.752380	1189.000000
785.788635	1177.000000
785.825012	1183.000000
785.861328	1186.000000
785.897644	1177.000000
785.933960	1251.000000
785.970337	1273.000000
786.006592	1306.000000
786.042908	1294.000000
786.079285	1298.000000
786.115540	1343.000000
786.151855	1385.000000
786.188171	1412.000000
786.224487	1473.000000
786.260803	1459.000000
786.297119	1478.000000
786.333435	1499.000000
786.369751	1503.000000
786.406006	1516.000000
786.442322	1493.000000
786.478638	1451.000000
786.514954	1439.000000
786.551270	1395.000000
786.587585	1364.000000
786.623840	1339.000000
786.660156	1337.000000
786.696472	1300.000000
786.732727	1270.000000
786.769043	1259.000000
786.805298	1217.000000
786.841614	1208.000000
786.877930	1247.000000
786.914124	1230.000000
786.950439	1261.000000
786.986755	1273.000000
787.023010	1279.000000
787.059326	1283.000000
787.095642	1303.000000
787.131836	1372.000000
787.168152	1369.000000
787.204468	1387.000000
787.240723	1412.000000
787.276978	1419.000000
787.313293	1443.000000
787.349548	1463.000000
787.385803	1502.000000
787.422058	1501.000000
787.458313	1483.000000
787.494629	1464.000000
787.530823	1443.000000
787.567139	1452.000000
787.603455	1429.000000
787.639648	1434.000000
787.675903	1418.000000
787.712219	1379.000000
787.748413	1357.000000
787.784729	1353.000000
787.820984	1339.000000
787.857178	1341.000000
787.893494	1338.000000
787.929749	1341.000000
787.965942	1312.000000
788.002258	1302.000000
788.038452	1333.000000
788.074707	1330.000000
788.110962	1358.000000
788.147217	1349.000000
788.183472	1353.000000
788.219727	1345.000000
788.255920	1328.000000
788.292175	1323.000000
788.328430	1348.000000
788.364624	1359.000000
788.400879	1360.000000
788.437134	1371.000000
788.473328	1349.000000
788.509583	1353.000000
788.545837	1347.000000
788.582031	1363.000000
788.618286	1393.000000
788.654480	1379.000000
788.690735	1381.000000
788.726990	1403.000000
788.763184	1419.000000
788.799377	1422.000000
788.835632	1439.000000
788.871826	1463.000000
788.908081	1443.000000
788.944336	1434.000000
788.980469	1446.000000
789.016724	1438.000000
789.052979	1436.000000
789.089111	1413.000000
789.125366	1425.000000
789.161621	1397.000000
789.197754	1392.000000
789.234009	1353.000000
789.270142	1365.000000
789.306396	1375.000000
789.342590	1371.000000
789.378784	1344.000000
789.414978	1329.000000
789.451233	1325.000000
789.487366	1322.000000
789.523621	1337.000000
789.559814	1347.000000
789.595947	1350.000000
789.632202	1376.000000
789.668335	1347.000000
789.704529	1353.000000
789.740784	1369.000000
789.776917	1381.000000
789.813110	1410.000000
789.849304	1449.000000
789.885498	1421.000000
789.921692	1410.000000
789.957886	1409.000000
789.994019	1397.000000
790.030212	1419.000000
790.066406	1467.000000
790.102539	1461.000000
790.138733	1455.000000
790.174927	1397.000000
790.211060	1381.000000
790.247253	1411.000000
790.283386	1419.000000
790.319580	1428.000000
790.355774	1391.000000
790.391907	1323.000000
790.428101	1211.000000
790.464294	1056.000000
790.500427	906.000000
790.536621	748.000000
790.572754	636.000000
790.608887	562.000000
790.645081	600.000000
790.681274	768.000000
790.717346	1002.000000
790.753540	1231.000000
790.789734	1367.000000
790.825867	1408.000000
790.862000	1420.000000
790.898132	1409.000000
790.934265	1382.000000
790.970459	1394.000000
791.006592	1423.000000
791.042725	1415.000000
791.078918	1406.000000
791.114990	1384.000000
791.151184	1344.000000
791.187317	1344.000000
791.223389	1353.000000
791.259583	1371.000000
791.295715	1391.000000
791.331848	1393.000000
791.367981	1371.000000
791.404114	1390.000000
791.440247	1392.000000
791.476379	1439.000000
791.512451	1463.000000
791.548584	1479.000000
791.584778	1461.000000
791.620850	1484.000000
791.656982	1453.000000
791.693115	1450.000000
791.729187	1454.000000
791.765381	1485.000000
791.801514	1486.000000
791.837585	1483.000000
791.873718	1482.000000
791.909851	1473.000000
791.945923	1485.000000
791.982056	1503.000000
792.018188	1520.000000
792.054260	1525.000000
792.090393	1503.000000
792.126465	1485.000000
792.162598	1484.000000
792.198669	1486.000000
792.234741	1502.000000
792.270874	1521.000000
792.307007	1493.000000
792.343079	1487.000000
792.379150	1464.000000
792.415283	1446.000000
792.451355	1468.000000
792.487488	1459.000000
792.523560	1471.000000
792.559631	1461.000000
792.595764	1432.000000
792.631836	1422.000000
792.667908	1430.000000
792.703979	1413.000000
792.740051	1447.000000
792.776184	1447.000000
792.812256	1434.000000
792.848328	1431.000000
792.884399	1421.000000
792.920471	1419.000000
792.956543	1447.000000
792.992615	1449.000000
793.028748	1452.000000
793.064758	1446.000000
793.100830	1448.000000
793.136963	1448.000000
793.172974	1460.000000
793.209045	1455.000000
793.245178	1486.000000
793.281189	1465.000000
793.317261	1447.000000
793.353271	1430.000000
793.389404	1449.000000
793.425476	1443.000000
793.461487	1443.000000
793.497559	1452.000000
793.533630	1448.000000
793.569641	1430.000000
793.605713	1421.000000
793.641785	1401.000000
793.677795	1415.000000
793.713867	1422.000000
793.749878	1458.000000
793.785950	1443.000000
793.822021	1456.000000
793.858032	1407.000000
793.894104	1437.000000
793.930176	1448.000000
793.966187	1459.000000
794.002258	1443.000000
794.038269	1443.000000
794.074280	1425.000000
794.110352	1437.000000
794.146423	1415.000000
794.182373	1436.000000
794.218445	1458.000000
794.254517	1460.000000
794.290466	1446.000000
794.326538	1422.000000
794.362549	1413.000000
794.398560	1412.000000
794.434631	1393.000000
794.470581	1390.000000
794.506653	1369.000000
794.542664	1367.000000
794.578674	1345.000000
794.614685	1331.000000
794.650757	1340.000000
794.686707	1360.000000
794.722778	1367.000000
794.758789	1366.000000
794.794739	1377.000000
794.830811	1359.000000
794.866821	1379.000000
794.902771	1373.000000
794.938843	1385.000000
794.974792	1403.000000
795.010803	1398.000000
795.046814	1402.000000
795.082825	1378.000000
795.118835	1374.000000
795.154846	1373.000000
795.190796	1391.000000
795.226807	1378.000000
795.262817	1383.000000
795.298767	1353.000000
795.334778	1344.000000
795.370850	1311.000000
795.406799	1335.000000
795.442810	1318.000000
795.478821	1331.000000
795.514709	1306.000000
795.550720	1322.000000
795.586670	1258.000000
795.622681	1260.000000
795.658691	1271.000000
795.694641	1275.000000
795.730652	1279.000000
795.766663	1294.000000
795.802551	1263.000000
795.838562	1261.000000
795.874573	1245.000000
795.910522	1267.000000
795.946472	1258.000000
795.982483	1265.000000
796.018433	1265.000000
796.054382	1257.000000
796.090393	1251.000000
796.126282	1237.000000
796.162292	1270.000000
796.198242	1292.000000
796.234192	1302.000000
796.270203	1291.000000
796.306091	1276.000000
796.342041	1291.000000
796.378052	1295.000000
796.413940	1314.000000
796.449951	1297.000000
796.485901	1305.000000
796.521790	1277.000000
796.557800	1271.000000
796.593689	1279.000000
796.629639	1296.000000
796.665649	1305.000000
796.701599	1323.000000
796.737488	1310.000000
796.773437	1282.000000
796.809387	1285.000000
796.845337	1306.000000
796.881287	1303.000000
796.917175	1316.000000
796.953125	1318.000000
796.989075	1327.000000
797.024963	1294.000000
797.060913	1289.000000
797.096863	1295.000000
797.132751	1301.000000
797.168701	1281.000000
797.204590	1279.000000
797.240540	1242.000000
797.276489	1226.000000
797.312439	1227.000000
797.348328	1225.000000
797.384277	1245.000000
797.420166	1260.000000
797.456055	1260.000000
797.492004	1248.000000
797.527893	1229.000000
797.563843	1227.000000
797.599731	1216.000000
797.635620	1253.000000
797.671570	1250.000000
797.707520	1242.000000
797.743347	1221.000000
797.779297	1236.000000
797.815125	1237.000000
797.851074	1254.000000
797.887024	1282.000000
797.922913	1287.000000
797.958801	1260.000000
797.994690	1235.000000
798.030579	1230.000000
798.066467	1240.000000
798.102356	1233.000000
798.138245	1249.000000
798.174133	1245.000000
798.210083	1226.000000
798.245911	1234.000000
798.281799	1223.000000
798.317749	1202.000000
798.353577	1233.000000
798.389465	1247.000000
798.425293	1219.000000
798.461243	1203.000000
798.497131	1196.000000
798.532959	1205.000000
798.568848	1223.000000
798.604736	1234.000000
798.640564	1241.000000
798.676453	1213.000000
798.712402	1202.000000
798.748230	1193.000000
798.784119	1178.000000
798.820007	1201.000000
798.855835	1209.000000
798.891724	1222.000000
798.927551	1207.000000
798.963379	1197.000000
798.999268	1187.000000
799.035095	1192.000000
799.070984	1198.000000
799.106873	1203.000000
799.142700	1207.000000
799.178528	1178.000000
799.214417	1155.000000
799.250244	1186.000000
799.286133	1188.000000
799.321960	1209.000000
799.357788	1210.000000
799.393677	1198.000000
799.429504	1184.000000
799.465332	1178.000000
799.501221	1174.000000
799.537048	1192.000000
799.572876	1196.000000
799.608704	1196.000000
799.644531	1181.000000
799.680359	1179.000000
799.716248	1180.000000
799.752014	1184.000000
799.787903	1184.000000
799.823730	1203.000000
799.859558	1194.000000
799.895386	1160.000000
799.931213	1139.000000
799.967041	1133.000000
800.002869	1131.000000
800.038696	1156.000000
800.074463	1145.000000
800.110352	1153.000000
800.146179	1126.000000
800.181946	1128.000000
800.217773	1132.000000
800.253540	1126.000000
800.289429	1150.000000
800.325256	1134.000000
800.361023	1116.000000
800.396851	1096.000000
800.432678	1107.000000
800.468445	1097.000000
800.504272	1111.000000
800.540100	1099.000000
800.575867	1106.000000
800.611694	1105.000000
800.647461	1085.000000
800.683289	1071.000000
800.719116	1070.000000
800.754883	1082.000000
800.790649	1063.000000
800.826477	1052.000000
800.862244	1075.000000
800.898071	1034.000000
800.933838	1037.000000
800.969604	1035.000000
801.005432	1053.000000
801.041199	1070.000000
801.076965	1058.000000
801.112793	1031.000000
801.148560	1010.000000
801.184326	1015.000000
801.220154	997.000000
801.255859	1003.000000
801.291687	1008.000000
801.327454	1006.000000
801.363281	1006.000000
801.398987	991.000000
801.434814	974.000000
801.470520	981.000000
801.506287	985.000000
801.542114	965.000000
801.577820	974.000000
801.613647	967.000000
801.649414	967.000000
801.685120	962.000000
801.720886	979.000000
801.756714	970.000000
801.792419	981.000000
801.828186	961.000000
801.863892	961.000000
801.899719	966.000000
801.935486	960.000000
801.971252	959.000000
802.006958	956.000000
802.042725	968.000000
802.078430	949.000000
802.114197	941.000000
802.149963	966.000000
802.185669	960.000000
802.221436	959.000000
802.257202	963.000000
802.292908	947.000000
802.328674	950.000000
802.364441	939.000000
802.400146	930.000000
802.435913	940.000000
802.471558	939.000000
802.507324	921.000000
802.543091	940.000000
802.578796	936.000000
802.614502	943.000000
802.650269	945.000000
802.685974	936.000000
802.721741	930.000000
802.757446	947.000000
802.793152	926.000000
802.828918	926.000000
802.864624	918.000000
802.900330	928.000000
802.936035	920.000000
802.971802	935.000000
803.007446	925.000000
803.043213	914.000000
803.078857	901.000000
803.114624	885.000000
803.150330	894.000000
803.185974	895.000000
803.221741	892.000000
803.257446	889.000000
803.293152	886.000000
803.328857	874.000000
803.364563	865.000000
803.400208	884.000000
803.435974	883.000000
803.471680	873.000000
803.507324	863.000000
803.543030	874.000000
803.578735	857.000000
803.614441	855.000000
803.650146	867.000000
803.685791	857.000000
803.721497	865.000000
803.757202	835.000000
803.792847	846.000000
803.828552	837.000000
803.864258	837.000000
803.899902	830.000000
803.935608	808.000000
803.971313	827.000000
804.006958	814.000000
804.042664	813.000000
804.078308	822.000000
804.113953	802.000000
804.149658	815.000000
804.185364	814.000000
804.221008	822.000000
804.256714	809.000000
804.292297	808.000000
804.328003	795.000000
804.363708	795.000000
804.399292	787.000000
804.434998	793.000000
804.470703	768.000000
804.506287	789.000000
804.541992	774.000000
804.577637	781.000000
804.613281	774.000000
804.648926	774.000000
804.684570	774.000000
804.720215	774.000000
804.755920	756.000000
804.791565	758.000000
804.827209	755.000000
804.862854	762.000000
804.898437	760.000000
804.934143	772.000000
804.969788	758.000000
805.005371	764.000000
805.041077	764.000000
805.076721	761.000000
805.112305	764.000000
805.147949	758.000000
805.183655	747.000000
805.219238	754.000000
805.254883	743.000000
805.290466	751.000000
805.326111	756.000000
805.361755	749.000000
805.397400	757.000000
805.432983	762.000000
805.468628	740.000000
805.504211	747.000000
805.539856	739.000000
805.575500	754.000000
805.611084	754.000000
805.646729	726.000000
805.682373	737.000000
805.717957	733.000000
805.753601	743.000000
805.789246	727.000000
805.824768	734.000000
805.860413	748.000000
805.895996	733.000000
805.931641	722.000000
805.967224	729.000000
806.002869	721.000000
806.038452	727.000000
806.074036	734.000000
806.109619	724.000000
806.145264	713.000000
806.180847	719.000000
806.216431	709.000000
806.252014	713.000000
806.287659	705.000000
806.323181	713.000000
806.358826	712.000000
806.394409	698.000000
806.429993	690.000000
806.465576	696.000000
806.501160	686.000000
806.536743	677.000000
806.572327	686.000000
806.607910	694.000000
806.643494	694.000000
806.679077	688.000000
806.714661	674.000000
806.750244	681.000000
806.785828	663.000000
806.821350	666.000000
806.856934	677.000000
806.892517	661.000000
806.928101	666.000000
806.963684	652.000000
806.999268	667.000000
807.034790	648.000000
807.070374	650.000000
807.105896	643.000000
807.141479	637.000000
807.177063	641.000000
807.212585	625.000000
807.248169	636.000000
807.283752	646.000000
807.319275	641.000000
807.354858	649.000000
807.390381	636.000000
807.425903	623.000000
807.461487	625.000000
807.497070	623.000000
807.532593	623.000000
807.568115	622.000000
807.603699	611.000000
807.639221	610.000000
807.674744	612.000000
807.710266	617.000000
807.745850	616.000000
807.781372	619.000000
807.816895	603.000000
807.852417	624.000000
807.888000	604.000000
807.923523	601.000000
807.959045	603.000000
807.994629	593.000000
808.030090	588.000000
808.065613	601.000000
808.101135	606.000000
808.136658	601.000000
808.172241	594.000000
808.207764	599.000000
808.243225	589.000000
808.278809	587.000000
808.314270	599.000000
808.349792	583.000000
808.385315	576.000000
808.420837	588.000000
808.456360	580.000000
808.491882	571.000000
808.527344	586.000000
808.562866	588.000000
808.598389	582.000000
808.633850	573.000000
808.669434	569.000000
808.704895	569.000000
808.740417	573.000000
808.775940	574.000000
808.811462	561.000000
808.846924	553.000000
808.882385	560.000000
808.917847	556.000000
808.953369	547.000000
808.988892	544.000000
809.024353	549.000000
809.059875	552.000000
809.095398	556.000000
809.130798	546.000000
809.166321	542.000000
809.201843	539.000000
809.237305	532.000000
809.272766	543.000000
809.308228	532.000000
809.343750	537.000000
809.379211	541.000000
809.414734	530.000000
809.450134	537.000000
809.485657	523.000000
809.521118	526.000000
809.556580	523.000000
809.592102	515.000000
809.627502	510.000000
809.663025	506.000000
809.698486	500.000000
809.733887	495.000000
809.769409	507.000000
809.804871	500.000000
809.840271	500.000000
809.875793	507.000000
809.911194	507.000000
809.946655	498.000000
809.982178	496.000000
810.017639	501.000000
810.053040	496.000000
810.088501	489.000000
810.123901	485.000000
810.159424	486.000000
810.194885	480.000000
810.230286	492.000000
810.265747	490.000000
810.301208	488.000000
810.336609	484.000000
810.372070	477.000000
810.407532	471.000000
810.442932	473.000000
810.478394	481.000000
810.513794	480.000000
810.549255	481.000000
810.584717	481.000000
810.620117	463.000000
810.655518	475.000000
810.690979	468.000000
810.726379	469.000000
810.761841	457.000000
810.797302	467.000000
810.832642	458.000000
810.868103	477.000000
810.903564	460.000000
810.938904	467.000000
810.974365	455.000000
811.009827	463.000000
811.045166	457.000000
811.080627	444.000000
811.115967	448.000000
811.151428	453.000000
811.186829	444.000000
811.222229	438.000000
811.257629	433.000000
811.293091	447.000000
811.328430	449.000000
811.363892	443.000000
811.399292	447.000000
811.434631	440.000000
811.470093	452.000000
811.505493	432.000000
811.540833	445.000000
811.576294	442.000000
811.611694	441.000000
811.647034	427.000000
811.682434	427.000000
811.717773	428.000000
811.753235	437.000000
811.788635	437.000000
811.823975	435.000000
811.859375	448.000000
811.894775	427.000000
811.930115	433.000000
811.965515	433.000000
812.000916	427.000000
812.036255	419.000000
812.071655	421.000000
812.106995	421.000000
812.142395	415.000000
812.177795	427.000000
812.213196	418.000000
812.248474	424.000000
812.283875	411.000000
812.319214	418.000000
812.354614	415.000000
812.390015	413.000000
812.425293	409.000000
812.460693	412.000000
812.496094	409.000000
812.531433	406.000000
812.566772	409.000000
812.602173	400.000000
812.637451	405.000000
812.672852	398.000000
812.708191	410.000000
812.743530	406.000000
812.778931	397.000000
812.814270	395.000000
812.849609	401.000000
812.884949	396.000000
812.920227	383.000000
812.955627	402.000000
812.990967	391.000000
813.026306	396.000000
813.061646	375.000000
813.096985	369.000000
813.132324	371.000000
813.167664	377.000000
813.203003	387.000000
813.238281	367.000000
813.273682	366.000000
813.308960	363.000000
813.344299	364.000000
813.379639	372.000000
813.414978	367.000000
813.450256	363.000000
813.485596	369.000000
813.520874	357.000000
813.556213	362.000000
813.591614	365.000000
813.626831	355.000000
813.662170	354.000000
813.697510	369.000000
813.732788	349.000000
813.768127	359.000000
813.803467	359.000000
813.838745	352.000000
813.874084	352.000000
813.909363	352.000000
813.944641	352.000000
813.979980	351.000000
814.015320	354.000000
814.050598	353.000000
814.085876	353.000000
814.121155	349.000000
814.156494	347.000000
814.191772	356.000000
814.227051	346.000000
814.262390	357.000000
814.297668	343.000000
814.332947	348.000000
814.368225	340.000000
814.403564	343.000000
814.438782	331.000000
814.474121	346.000000
814.509338	329.000000
814.544617	347.000000
814.579956	340.000000
814.615173	347.000000
814.650513	336.000000
814.685791	336.000000
814.721008	338.000000
814.756348	339.000000
814.791626	340.000000
814.826843	338.000000
814.862122	329.000000
814.897400	326.000000
814.932678	328.000000
814.967957	323.000000
815.003235	331.000000
815.038452	326.000000
815.073730	320.000000
815.108948	327.000000
815.144226	333.000000
815.179504	325.000000
815.214722	314.000000
815.250000	310.000000
815.285278	326.000000
815.320496	319.000000
815.355774	317.000000
815.391052	322.000000
815.426270	317.000000
815.461487	312.000000
815.496765	314.000000
815.531982	307.000000
815.567261	307.000000
815.602539	313.000000
815.637695	320.000000
815.672974	309.000000
815.708191	315.000000
815.743408	318.000000
815.778687	311.000000
815.813904	314.000000
815.849121	299.000000
815.884399	302.000000
815.919556	302.000000
815.954834	298.000000
815.990051	308.000000
816.025269	307.000000
816.060486	305.000000
816.095703	300.000000
816.130920	302.000000
816.166199	296.000000
816.201416	305.000000
816.236572	305.000000
816.271851	292.000000
816.307007	306.000000
816.342224	285.000000
816.377441	291.000000
816.412659	284.000000
816.447876	291.000000
816.483093	298.000000
816.518250	295.000000
816.553467	295.000000
816.588745	291.000000
816.623901	281.000000
816.659119	280.000000
816.694275	285.000000
816.729492	281.000000
816.764709	313.000000
816.799927	280.000000
816.835083	285.000000
816.870300	278.000000
816.905457	281.000000
816.940674	283.000000
816.975830	276.000000
817.010986	281.000000
817.046204	275.000000
817.081421	276.000000
817.116577	267.000000
817.151733	277.000000
817.186951	272.000000
817.222107	279.000000
817.257324	282.000000
817.292419	280.000000
817.327637	268.000000
817.362854	274.000000
817.398010	269.000000
817.433167	272.000000
817.468323	271.000000
817.503479	270.000000
817.538635	275.000000
817.573853	283.000000
817.608948	269.000000
817.644165	271.000000
817.679321	265.000000
817.714478	271.000000
817.749634	272.000000
817.784790	279.000000
817.819946	266.000000
817.855103	257.000000
817.890198	270.000000
817.925415	257.000000
817.960571	268.000000
817.995667	268.000000
818.030823	262.000000
818.066040	263.000000
818.101135	266.000000
818.136292	265.000000
818.171448	264.000000
818.206543	264.000000
818.241699	261.000000
818.276855	259.000000
818.311951	264.000000
818.347107	255.000000
818.382263	270.000000
818.417358	265.000000
818.452515	271.000000
818.487610	262.000000
818.522766	257.000000
818.557922	269.000000
818.593018	266.000000
818.628113	258.000000
818.663269	252.000000
818.698364	261.000000
818.733521	252.000000
818.768677	261.000000
818.803711	258.000000
818.838867	251.000000
818.874023	254.000000
818.909058	251.000000
818.944214	248.000000
818.979370	254.000000
819.014404	258.000000
819.049561	245.000000
819.084595	252.000000
819.119751	243.000000
819.154846	253.000000
819.189941	250.000000
819.225037	248.000000
819.260193	239.000000
819.295227	241.000000
819.330322	238.000000
819.365479	238.000000
819.400513	262.000000
819.435608	236.000000
819.470764	236.000000
819.505798	243.000000
819.540894	238.000000
819.575989	243.000000
819.611084	247.000000
819.646179	250.000000
819.681213	241.000000
819.716309	235.000000
819.751404	242.000000
819.786438	249.000000
819.821533	233.000000
819.856628	238.000000
819.891663	238.000000
819.926758	247.000000
819.961853	241.000000
819.996887	228.000000
820.031982	239.000000
820.067017	238.000000
820.102112	265.000000
820.137207	228.000000
820.172302	251.000000
820.207275	230.000000
820.242371	233.000000
820.277405	227.000000
820.312500	237.000000
820.347534	230.000000
820.382568	237.000000
820.417664	230.000000
820.452759	231.000000
820.487732	229.000000
820.522827	230.000000
820.557861	226.000000
820.592896	232.000000
820.627930	227.000000
820.662964	228.000000
820.698059	233.000000
820.733093	227.000000
820.768127	229.000000
820.803162	231.000000
820.838196	224.000000
820.873230	228.000000
820.908264	227.000000
820.943298	230.000000
820.978333	230.000000
821.013367	234.000000
821.048401	228.000000
821.083435	232.000000
821.118469	215.000000
821.153503	233.000000
821.188477	223.000000
821.223511	218.000000
821.258484	223.000000
821.293579	226.000000
821.328613	219.000000
821.363647	225.000000
821.398621	216.000000
821.433655	224.000000
821.468628	236.000000
821.503662	222.000000
821.538696	223.000000
821.573669	221.000000
821.608704	223.000000
821.643677	219.000000
821.678650	226.000000
821.713684	232.000000
821.748718	221.000000
821.783691	224.000000
821.818726	224.000000
821.853638	222.000000
821.888672	222.000000
821.923706	218.000000
821.958618	217.000000
821.993652	217.000000
822.028687	225.000000
822.063599	225.000000
822.098633	218.000000
822.133667	209.000000
822.168579	215.000000
822.203613	221.000000
822.238586	211.000000
822.273560	217.000000
822.308533	210.000000
822.343567	217.000000
822.378479	216.000000
822.413452	212.000000
822.448425	209.000000
822.483398	216.000000
822.518372	218.000000
822.553345	208.000000
822.588318	221.000000
822.623291	211.000000
822.658203	211.000000
822.693237	209.000000
822.728210	211.000000
822.763123	212.000000
822.798096	204.000000
822.833069	212.000000
822.867981	211.000000
822.902954	213.000000
822.937927	216.000000
822.972900	215.000000
823.007874	204.000000
823.042725	211.000000
823.077698	221.000000
823.112671	203.000000
823.147583	207.000000
823.182556	210.000000
823.217529	209.000000
823.252441	207.000000
823.287415	223.000000
823.322388	211.000000
823.357239	207.000000
823.392212	212.000000
823.427185	213.000000
823.462097	206.000000
823.497009	210.000000
823.531982	203.000000
823.566895	205.000000
823.601807	202.000000
823.636719	205.000000
823.671631	211.000000
823.706604	204.000000
823.741455	212.000000
823.776428	195.000000
823.811340	210.000000
823.846252	211.000000
823.881165	216.000000
823.916138	201.000000
823.950989	216.000000
823.985901	199.000000
824.020813	206.000000
824.055725	207.000000
824.090637	201.000000
824.125610	206.000000
824.160461	209.000000
824.195374	205.000000
824.230225	211.000000
824.265198	192.000000
824.300110	201.000000
824.334961	209.000000
824.369873	197.000000
824.404785	208.000000
824.439636	206.000000
824.474548	201.000000
824.509460	194.000000
824.544312	203.000000
824.579224	205.000000
824.614075	205.000000
824.648987	203.000000
824.683899	202.000000
824.718811	202.000000
824.753662	204.000000
824.788574	211.000000
824.823364	203.000000
824.858276	197.000000
824.893188	207.000000
824.928040	206.000000
824.962952	199.000000
824.997803	206.000000
825.032654	206.000000
825.067566	203.000000
825.102417	197.000000
825.137268	201.000000
825.172119	198.000000
825.206970	197.000000
825.241882	204.000000
825.276733	196.000000
825.311646	203.000000
825.346436	193.000000
825.381348	191.000000
825.416138	197.000000
825.450989	193.000000
825.485901	185.000000
825.520691	192.000000
825.555542	190.000000
825.590454	196.000000
825.625244	189.000000
825.660095	205.000000
825.695007	199.000000
825.729797	200.000000
825.764648	192.000000
825.799438	195.000000
825.834290	196.000000
825.869202	189.000000
825.903992	193.000000
825.938843	191.000000
825.973694	189.000000
826.008484	209.000000
826.043335	189.000000
826.078186	189.000000
826.112976	195.000000
826.147827	201.000000
826.182678	202.000000
826.217468	185.000000
826.252319	195.000000
826.287109	188.000000
826.321899	199.000000
826.356750	193.000000
826.391541	191.000000
826.426392	200.000000
826.461182	194.000000
826.495972	193.000000
826.530823	182.000000
826.565613	197.000000
826.600403	192.000000
826.635254	197.000000
826.670044	180.000000
826.704834	189.000000
826.739685	189.000000
826.774475	196.000000
826.809265	193.000000
826.844055	190.000000
826.878906	199.000000
826.913635	197.000000
826.948425	195.000000
826.983215	194.000000
827.018005	202.000000
827.052856	189.000000
827.087585	197.000000
827.122375	190.000000
827.157227	190.000000
827.191956	201.000000
827.226746	187.000000
827.261536	192.000000
827.296265	186.000000
827.331116	189.000000
827.365906	193.000000
827.400635	186.000000
827.435425	182.000000
827.470215	198.000000
827.504944	189.000000
827.539734	197.000000
827.574463	190.000000
827.609253	196.000000
827.644043	191.000000
827.678772	193.000000
827.713562	189.000000
827.748352	185.000000
827.783081	185.000000
827.817871	191.000000
827.852600	183.000000
827.887329	188.000000
827.922119	183.000000
827.956848	194.000000
827.991638	202.000000
828.026367	189.000000
828.061157	189.000000
828.095886	185.000000
828.130615	209.000000
828.165344	179.000000
828.200073	191.000000
828.234863	184.000000
828.269592	190.000000
828.304321	193.000000
828.339111	191.000000
828.373779	188.000000
828.408569	192.000000
828.443298	190.000000
828.477966	186.000000
828.512756	190.000000
828.547424	183.000000
828.582214	188.000000
828.616943	188.000000
828.651672	186.000000
828.686340	194.000000
828.721130	183.000000
828.755798	189.000000
828.790527	190.000000
828.825256	190.000000
828.859924	190.000000
828.894714	191.000000
828.929443	192.000000
828.964111	186.000000
828.998840	192.000000
829.033569	181.000000
829.068237	187.000000
829.102966	183.000000
829.137634	189.000000
829.172363	191.000000
829.207092	187.000000
829.241821	181.000000
829.276489	181.000000
829.311157	182.000000
829.345825	185.000000
829.380554	189.000000
829.415283	182.000000
829.449951	179.000000
829.484619	197.000000
829.519348	191.000000
829.554016	187.000000
829.588745	189.000000
829.623413	182.000000
829.658081	193.000000
829.692749	182.000000
829.727417	189.000000
829.762146	188.000000
829.796814	181.000000
829.831482	186.000000
829.866150	182.000000
829.900879	186.000000
829.935486	185.000000
829.970154	179.000000
830.004883	195.000000
830.039490	190.000000
830.074219	182.000000
830.108887	187.000000
830.143494	187.000000
830.178223	182.000000
830.212891	185.000000
830.247498	189.000000
830.282166	190.000000
830.316772	191.000000
830.351501	187.000000
830.386169	184.000000
830.420776	189.000000
830.455444	185.000000
830.490112	181.000000
830.524719	179.000000
830.559387	190.000000
830.594055	190.000000
830.628662	186.000000
830.663330	184.000000
830.697998	192.000000
830.732605	188.000000
830.767273	187.000000
830.801941	183.000000
830.836487	194.000000
830.871155	189.000000
830.905762	186.000000
830.940430	179.000000
830.975098	182.000000
831.009644	185.000000
831.044312	197.000000
831.078979	184.000000
831.113525	176.000000
831.148193	185.000000
831.182861	187.000000
831.217407	185.000000
831.252075	200.000000
831.286621	181.000000
831.321289	181.000000
831.355896	184.000000
831.390564	194.000000
831.425110	180.000000
831.459778	195.000000
831.494324	198.000000
831.528931	188.000000
831.563599	188.000000
831.598145	180.000000
831.632751	183.000000
831.667419	186.000000
831.701965	189.000000
831.736572	190.000000
831.771179	178.000000
831.805786	183.000000
831.840393	191.000000
831.874939	179.000000
831.909546	189.000000
831.944153	177.000000
831.978760	182.000000
832.013306	185.000000
832.047913	191.000000
832.082458	200.000000
832.117065	185.000000
832.151672	196.000000
832.186218	189.000000
832.220825	193.000000
832.255432	178.000000
832.289978	181.000000
832.324585	190.000000
832.359192	186.000000
832.393677	185.000000
832.428284	186.000000
832.462830	184.000000
832.497437	187.000000
832.531982	191.000000
832.566589	181.000000
832.601135	188.000000
832.635681	175.000000
832.670227	189.000000
832.704773	193.000000
832.739380	186.000000
832.773926	181.000000
832.808472	182.000000
832.843079	185.000000
832.877563	188.000000
832.912170	185.000000
832.946716	179.000000
832.981201	189.000000
833.015808	190.000000
833.050293	184.000000
833.084839	183.000000
833.119446	180.000000
833.153992	188.000000
833.188477	183.000000
833.223022	182.000000
833.257568	184.000000
833.292114	192.000000
833.326660	197.000000
833.361145	184.000000
833.395691	176.000000
833.430237	187.000000
833.464783	187.000000
833.499329	180.000000
833.533875	177.000000
833.568359	194.000000
833.602905	187.000000
833.637390	193.000000
833.671875	185.000000
833.706421	180.000000
833.740906	179.000000
833.775452	178.000000
833.809998	181.000000
833.844482	190.000000
833.879028	184.000000
833.913513	187.000000
833.947998	188.000000
833.982544	185.000000
834.017090	184.000000
834.051514	177.000000
834.086060	187.000000
834.120544	186.000000
834.155029	190.000000
834.189575	185.000000
834.223999	185.000000
834.258545	186.000000
834.293030	190.000000
834.327515	184.000000
834.362000	187.000000
834.396545	191.000000
834.430969	185.000000
834.465454	189.000000
834.500000	178.000000
834.534424	184.000000
834.568970	176.000000
834.603455	170.000000
834.637878	181.000000
834.672363	188.000000
834.706909	186.000000
834.741333	183.000000
834.775818	177.000000
834.810242	177.000000
834.844727	185.000000
834.879211	181.000000
834.913635	188.000000
834.948181	181.000000
834.982666	189.000000
835.017090	179.000000
835.051575	185.000000
835.086060	178.000000
835.120483	190.000000
835.154907	185.000000
835.189331	187.000000
835.223816	187.000000
835.258301	180.000000
835.292786	180.000000
835.327209	195.000000
835.361694	178.000000
835.396057	183.000000
835.430542	194.000000
835.465027	182.000000
835.499390	180.000000
835.533875	211.000000
835.568359	180.000000
835.602722	178.000000
835.637207	186.000000
835.671692	181.000000
835.706055	203.000000
835.740540	192.000000
835.774902	188.000000
835.809387	188.000000
835.843811	182.000000
835.878235	191.000000
835.912659	186.000000
835.947083	182.000000
835.981506	185.000000
836.015930	178.000000
836.050354	195.000000
836.084778	192.000000
836.119202	192.000000
836.153625	199.000000
836.187988	179.000000
836.222473	183.000000
836.256897	185.000000
836.291260	178.000000
836.325684	190.000000
836.360046	179.000000
836.394470	182.000000
836.428894	189.000000
836.463318	185.000000
836.497681	186.000000
836.532104	193.000000
836.566467	184.000000
836.600891	185.000000
836.635315	190.000000
836.669678	187.000000
836.704102	186.000000
836.738525	189.000000
836.772888	179.000000
836.807251	183.000000
836.841675	186.000000
836.876038	183.000000
836.910461	181.000000
836.944763	193.000000
836.979187	182.000000
837.013611	190.000000
837.047974	179.000000
837.082336	198.000000
837.116699	186.000000
837.151062	188.000000
837.185486	183.000000
837.219849	182.000000
837.254211	191.000000
837.288574	187.000000
837.322937	180.000000
837.357300	173.000000
837.391663	201.000000
837.426086	188.000000
837.460388	189.000000
837.494751	189.000000
837.529114	180.000000
837.563477	194.000000
837.597839	190.000000
837.632141	182.000000
837.666565	188.000000
837.700928	187.000000
837.735229	188.000000
837.769592	185.000000
837.803955	193.000000
837.838257	183.000000
837.872620	188.000000
837.906982	195.000000
837.941284	183.000000
837.975647	185.000000
838.010010	196.000000
838.044312	182.000000
838.078674	185.000000
838.112976	182.000000
838.147339	187.000000
838.181702	185.000000
838.216003	196.000000
838.250366	183.000000
838.284668	191.000000
838.318970	179.000000
838.353333	184.000000
838.387634	182.000000
838.421936	187.000000
838.456299	183.000000
838.490601	196.000000
838.524902	186.000000
838.559265	190.000000
838.593567	187.000000
838.627869	177.000000
838.662170	185.000000
838.696472	181.000000
838.730774	184.000000
838.765137	191.000000
838.799377	171.000000
838.833740	190.000000
838.868042	187.000000
838.902283	180.000000
838.936646	197.000000
838.970947	189.000000
839.005188	194.000000
839.039551	180.000000
839.073792	194.000000
839.108093	184.000000
839.142395	201.000000
839.176697	182.000000
839.210937	186.000000
839.245300	196.000000
839.279541	181.000000
839.313843	187.000000
839.348145	194.000000
839.382385	189.000000
839.416687	192.000000
839.450989	189.000000
839.485229	184.000000
839.519531	178.000000
839.553833	194.000000
839.588013	184.000000
839.622314	187.000000
839.656555	189.000000
839.690857	188.000000
839.725159	182.000000
839.759460	184.000000
839.793640	180.000000
839.827942	185.000000
839.862183	177.000000
839.896423	189.000000
839.930725	199.000000
839.964966	196.000000
839.999207	193.000000
840.033508	193.000000
840.067688	182.000000
840.101990	194.000000
840.136230	187.000000
840.170471	193.000000
840.204712	184.000000
840.238953	185.000000
840.273193	190.000000
840.307434	189.000000
840.341736	179.000000
840.375916	179.000000
840.410217	182.000000
840.444397	192.000000
840.478638	189.000000
840.512878	191.000000
840.547119	187.000000
840.581360	188.000000
840.615601	195.000000
840.649780	199.000000
840.684021	188.000000
840.718262	193.000000
840.752441	196.000000
840.786682	193.000000
840.820862	189.000000
840.855103	194.000000
840.889343	190.000000
840.923584	191.000000
840.957764	189.000000
840.992004	190.000000
841.026184	199.000000
841.060425	187.000000
841.094666	186.000000
841.128845	187.000000
841.163025	189.000000
841.197266	195.000000
841.231445	189.000000
841.265686	186.000000
841.299866	184.000000
841.334045	189.000000
841.368286	187.000000
841.402405	194.000000
841.436646	193.000000
841.470825	183.000000
841.505005	190.000000
841.539185	181.000000
841.573425	187.000000
841.607544	186.000000
841.641785	188.000000
841.675964	182.000000
841.710144	187.000000
841.744324	180.000000
841.778503	187.000000
841.812683	187.000000
841.846863	197.000000
841.881042	190.000000
841.915222	184.000000
841.949402	199.000000
841.983521	177.000000
842.017700	182.000000
842.051880	187.000000
842.086060	187.000000
842.120239	186.000000
842.154419	182.000000
842.188538	187.000000
842.222717	182.000000
842.256897	195.000000
842.291016	185.000000
842.325195	190.000000
842.359375	197.000000
842.393494	192.000000
842.427673	190.000000
842.461853	191.000000
842.495911	193.000000
842.530090	191.000000
842.564209	185.000000
842.598389	191.000000
842.632568	187.000000
842.666626	192.000000
842.700806	187.000000
842.734985	188.000000
842.769043	191.000000
842.803223	189.000000
842.837402	185.000000
842.871460	181.000000
842.905640	195.000000
842.939697	181.000000
842.973877	189.000000
843.007996	189.000000
843.042175	195.000000
843.076233	180.000000
843.110413	191.000000
843.144470	194.000000
843.178589	189.000000
843.212769	184.000000
843.246826	194.000000
843.280945	182.000000
843.315125	189.000000
843.349182	183.000000
843.383301	197.000000
843.417419	197.000000
843.451538	185.000000
843.485657	185.000000
843.519714	185.000000
843.553833	189.000000
843.587952	187.000000
843.622070	183.000000
843.656128	189.000000
843.690247	181.000000
843.724304	187.000000
843.758423	184.000000
843.792542	184.000000
843.826599	184.000000
843.860718	186.000000
843.894836	179.000000
843.928894	184.000000
843.963013	186.000000
843.997070	180.000000
844.031128	179.000000
844.065247	197.000000
844.099304	192.000000
844.133362	188.000000
844.167480	193.000000
844.201599	192.000000
844.235596	191.000000
844.269714	189.000000
844.303711	185.000000
844.337830	182.000000
844.371948	193.000000
844.405945	183.000000
844.440063	181.000000
844.474121	202.000000
844.508118	184.000000
844.542236	186.000000
844.576294	188.000000
844.610352	182.000000
844.644409	188.000000
844.678406	177.000000
844.712524	191.000000
844.746582	195.000000
844.780640	188.000000
844.814636	183.000000
844.848755	201.000000
844.882751	184.000000
844.916809	191.000000
844.950867	190.000000
844.984863	201.000000
845.018921	181.000000
845.052979	185.000000
845.086975	189.000000
845.121033	181.000000
845.155090	181.000000
845.189087	193.000000
845.223145	180.000000
845.257141	191.000000
845.291199	189.000000
845.325256	195.000000
845.359253	185.000000
845.393250	198.000000
845.427307	181.000000
845.461304	189.000000
845.495361	185.000000
845.529358	196.000000
845.563354	185.000000
845.597412	186.000000
845.631409	193.000000
845.665405	197.000000
845.699463	191.000000
845.733459	183.000000
845.767456	197.000000
845.801453	186.000000
845.835449	190.000000
845.869446	193.000000
845.903503	191.000000
845.937439	185.000000
845.971497	200.000000
846.005493	183.000000
846.039429	195.000000
846.073486	198.000000
846.107483	190.000000
846.141418	188.000000
846.175476	192.000000
846.209473	196.000000
846.243408	186.000000
846.277405	187.000000
846.311401	186.000000
846.345337	186.000000
846.379395	195.000000
846.413330	182.000000
846.447327	197.000000
846.481323	183.000000
846.515259	188.000000
846.549255	185.000000
846.583252	193.000000
846.617187	181.000000
846.651184	189.000000
846.685120	183.000000
846.719055	196.000000
846.753052	191.000000
846.786987	194.000000
846.820984	178.000000
846.854980	195.000000
846.888916	181.000000
846.922852	187.000000
846.956848	193.000000
846.990723	183.000000
847.024719	189.000000
847.058716	188.000000
847.092590	192.000000
847.126587	191.000000
847.160522	182.000000
847.194458	193.000000
847.228455	177.000000
847.262390	179.000000
847.296265	183.000000
847.330261	193.000000
847.364136	182.000000
847.398132	185.000000
847.432068	189.000000
847.466003	185.000000
847.499939	181.000000
847.533875	191.000000
847.567749	184.000000
847.601746	189.000000
847.635681	194.000000
847.669556	179.000000
847.703491	192.000000
847.737427	199.000000
847.771301	180.000000
847.805237	191.000000
847.839233	191.000000
847.873108	185.000000
847.907043	189.000000
847.940918	193.000000
847.974854	185.000000
848.008789	193.000000
848.042664	189.000000
848.076538	188.000000
848.110474	188.000000
848.144348	191.000000
848.178284	181.000000
848.212219	187.000000
848.246094	185.000000
848.279968	186.000000
848.313904	192.000000
848.347778	185.000000
848.381653	186.000000
848.415588	183.000000
848.449463	184.000000
848.483337	188.000000
848.517212	196.000000
848.551086	185.000000
848.585022	184.000000
848.618835	194.000000
848.652771	182.000000
848.686646	179.000000
848.720520	197.000000
848.754395	186.000000
848.788330	193.000000
848.822144	191.000000
848.856018	187.000000
848.889954	195.000000
848.923767	187.000000
848.957642	183.000000
848.991577	187.000000
849.025391	184.000000
849.059265	185.000000
849.093079	181.000000
849.126953	182.000000
849.160828	193.000000
849.194641	187.000000
849.228577	184.000000
849.262451	183.000000
849.296265	184.000000
849.330139	182.000000
849.364014	184.000000
849.397827	186.000000
849.431702	186.000000
849.465515	187.000000
849.499329	171.000000
849.533203	183.000000
849.567078	180.000000
849.600891	192.000000
849.634766	188.000000
849.668518	195.000000
849.702393	189.000000
849.736267	179.000000
849.770020	198.000000
849.803894	192.000000
849.837769	189.000000
849.871521	187.000000
849.905396	192.000000
849.939270	183.000000
849.973022	186.000000
850.006897	193.000000
850.040710	191.000000
850.074524	189.000000
850.108337	187.000000
850.142151	194.000000
850.175964	194.000000
850.209778	183.000000
850.243530	182.000000
850.277405	190.000000
850.311218	185.000000
850.344971	184.000000
850.378845	195.000000
850.412659	182.000000
850.446411	189.000000
850.480225	185.000000
850.514038	194.000000
850.547791	186.000000
850.581665	187.000000
850.615417	182.000000
850.649231	193.000000
850.683044	186.000000
850.716858	185.000000
850.750610	184.000000
850.784424	193.000000
850.818176	183.000000
850.851929	188.000000
850.885742	185.000000
850.919495	187.000000
850.953308	193.000000
850.987122	198.000000
851.020874	178.000000
851.054626	182.000000
851.088440	191.000000
851.122192	185.000000
851.156006	188.000000
851.189697	187.000000
851.223511	181.000000
851.257263	195.000000
851.291077	194.000000
851.324829	182.000000
851.358582	184.000000
851.392334	186.000000
851.426086	185.000000
851.459900	196.000000
851.493591	191.000000
851.527344	189.000000
851.561157	191.000000
851.594849	190.000000
851.628662	187.000000
851.662415	197.000000
851.696106	192.000000
851.729858	191.000000
851.763611	184.000000
851.797363	184.000000
851.831116	181.000000
851.864868	189.000000
851.898560	193.000000
851.932312	182.000000
851.966064	187.000000
851.999817	187.000000
852.033569	191.000000
852.067261	189.000000
852.101013	187.000000
852.134766	182.000000
852.168457	175.000000
852.202209	188.000000
852.235901	182.000000
852.269592	191.000000
852.303345	196.000000
852.337036	189.000000
852.370789	186.000000
852.404541	193.000000
852.438171	183.000000
852.471924	184.000000
852.505676	183.000000
852.539307	187.000000
852.573059	187.000000
852.606812	188.000000
852.640442	185.000000
852.674194	190.000000
852.707886	198.000000
852.741577	193.000000
852.775269	184.000000
852.809021	189.000000
852.842651	189.000000
852.876404	195.000000
852.910034	188.000000
852.943787	191.000000
852.977478	191.000000
853.011108	182.000000
853.044861	183.000000
853.078552	195.000000
853.112183	188.000000
853.145874	190.000000
853.179626	182.000000
853.213257	192.000000
853.246948	184.000000
853.280640	199.000000
853.314270	185.000000
853.347961	194.000000
853.381653	194.000000
853.415283	194.000000
853.448975	184.000000
853.482605	189.000000
853.516296	186.000000
853.549988	182.000000
853.583618	189.000000
853.617310	189.000000
853.651001	187.000000
853.684631	184.000000
853.718323	182.000000
853.751953	192.000000
853.785583	179.000000
853.819275	194.000000
853.852966	186.000000
853.886536	180.000000
853.920227	180.000000
853.953918	190.000000
853.987488	188.000000
854.021179	189.000000
854.054749	191.000000
854.088440	192.000000
854.122131	188.000000
854.155701	192.000000
854.189331	183.000000
854.223022	194.000000
854.256592	186.000000
854.290283	185.000000
854.323914	191.000000
854.357483	188.000000
854.391174	190.000000
854.424744	197.000000
854.458374	188.000000
854.492065	197.000000
854.525696	189.000000
854.559265	195.000000
854.592896	200.000000
854.626465	191.000000
854.660095	185.000000
854.693787	190.000000
854.727356	187.000000
854.760986	195.000000
854.794617	191.000000
854.828186	187.000000
854.861816	190.000000
854.895447	187.000000
854.929016	189.000000
854.962585	194.000000
854.996155	195.000000
855.029785	189.000000
855.063416	192.000000
855.097046	188.000000
855.130615	186.000000
855.164185	193.000000
855.197754	190.000000
855.231384	193.000000
855.264954	184.000000
855.298523	192.000000
855.332153	193.000000
855.365723	191.000000
855.399292	186.000000
855.432922	183.000000
855.466492	191.000000
855.500061	186.000000
855.533630	186.000000
855.567200	189.000000
855.600769	190.000000
855.634338	190.000000
855.667969	189.000000
855.701477	180.000000
855.735046	186.000000
855.768616	175.000000
855.802185	192.000000
855.835754	203.000000
855.869324	180.000000
855.902893	185.000000
855.936401	194.000000
855.969971	185.000000
856.003540	182.000000
856.037109	190.000000
856.070618	186.000000
856.104187	181.000000
856.137695	187.000000
856.171265	175.000000
856.204834	191.000000
856.238403	194.000000
856.271912	184.000000
856.305481	192.000000
856.338989	181.000000
856.372559	187.000000
856.406128	189.000000
856.439636	193.000000
856.473145	184.000000
856.506653	194.000000
856.540222	191.000000
856.573792	193.000000
856.607300	196.000000
856.640808	184.000000
856.674377	191.000000
856.707825	221.000000
856.741394	190.000000
856.774902	183.000000
856.808472	176.000000
856.841980	191.000000
856.875488	197.000000
856.908936	185.000000
856.942505	181.000000
856.976013	185.000000
857.009521	180.000000
857.043030	189.000000
857.076477	182.000000
857.110046	192.000000
857.143555	189.000000
857.177063	192.000000
857.210571	182.000000
857.244080	183.000000
857.277527	186.000000
857.311035	187.000000
857.344543	188.000000
857.378052	187.000000
857.411499	189.000000
857.445068	194.000000
857.478516	183.000000
857.512024	183.000000
857.545532	187.000000
857.578979	188.000000
857.612427	187.000000
857.645874	183.000000
857.679382	185.000000
857.712891	196.000000
857.746399	189.000000
857.779846	190.000000
857.813354	193.000000
857.846741	190.000000
857.880249	177.000000
857.913757	190.000000
857.947266	190.000000
857.980652	191.000000
858.014160	187.000000
858.047546	188.000000
858.081055	183.000000
858.114563	199.000000
858.147949	184.000000
858.181458	192.000000
858.214844	190.000000
858.248352	176.000000
858.281799	193.000000
858.315308	202.000000
858.348694	191.000000
858.382141	194.000000
858.415588	194.000000
858.449036	193.000000
858.482483	186.000000
858.515930	185.000000
858.549377	187.000000
858.582825	191.000000
858.616211	194.000000
858.649658	189.000000
858.683105	184.000000
858.716553	186.000000
858.750000	182.000000
858.783386	181.000000
858.816833	181.000000
858.850281	188.000000
858.883728	190.000000
858.917114	186.000000
858.950562	200.000000
858.983948	193.000000
859.017395	192.000000
859.050781	187.000000
859.084167	183.000000
859.117615	179.000000
859.151062	192.000000
859.184448	180.000000
859.217834	186.000000
859.251282	186.000000
859.284668	183.000000
859.318054	174.000000
859.351440	187.000000
859.384888	190.000000
859.418274	182.000000
859.451721	180.000000
859.485046	188.000000
859.518494	189.000000
859.551819	186.000000
859.585266	189.000000
859.618652	194.000000
859.652039	185.000000
859.685425	181.000000
859.718811	181.000000
859.752197	179.000000
859.785583	192.000000
859.819031	200.000000
859.852356	200.000000
859.885742	184.000000
859.919067	189.000000
859.952454	183.000000
859.985901	191.000000
860.019287	184.000000
860.052612	0.000000
860.085999	0.000000
860.119324	0.000000
860.152710	0.000000
860.186096	0.000000
860.219421	0.000000
860.252808	0.000000
860.286133	0.000000
860.319519	0.000000
860.352905	0.000000
860.386292	0.000000
860.419617	0.000000
860.452942	0.000000
860.486267	0.000000
860.519653	0.000000
860.553040	0.000000
860.586365	0.000000
860.619690	0.000000
860.653076	0.000000
860.686340	0.000000
860.719727	0.000000
860.753113	0.000000
860.786377	0.000000
860.819763	0.000000
860.853027	0.000000
860.886414	0.000000
860.919739	0.000000
860.953125	0.000000
860.986389	0.000000
861.019714	0.000000
861.053040	0.000000
861.086365	0.000000
861.119690	0.000000
861.153076	0.000000
861.186340	0.000000
861.219666	0.000000
861.252930	0.000000
861.286316	0.000000
861.319641	0.000000
861.352905	0.000000
861.386230	0.000000
861.419495	0.000000
861.452820	0.000000
861.486145	0.000000
861.519470	0.000000
861.552734	0.000000
861.586060	0.000000
861.619324	0.000000
861.652649	0.000000
861.685974	0.000000
861.719238	0.000000
861.752563	0.000000
861.785828	0.000000
861.819092	0.000000
861.852417	0.000000
861.885742	0.000000
861.918945	0.000000
861.952271	0.000000
861.985535	0.000000
862.018799	0.000000
862.052124	0.000000
862.085449	0.000000
862.118652	0.000000
862.151978	0.000000
862.185181	0.000000
862.218506	0.000000
862.251770	0.000000
862.285034	0.000000
862.318298	0.000000
862.351562	0.000000
862.384827	0.000000
862.418091	0.000000
862.451355	0.000000
862.484619	0.000000
862.517883	0.000000
862.551086	0.000000
862.584351	0.000000
862.617676	0.000000
862.650940	0.000000
862.684143	0.000000
862.717407	0.000000
862.750610	0.000000
862.783875	0.000000
862.817139	0.000000
862.850342	0.000000
862.883606	0.000000
862.916870	0.000000
862.950073	0.000000
862.983337	0.000000
863.016602	0.000000
863.049805	0.000000
863.083069	0.000000
863.116211	0.000000
863.149475	0.000000
863.182739	0.000000
863.216003	0.000000
863.249146	0.000000
863.282410	0.000000
863.315613	0.000000
863.348816	0.000000
863.382080	0.000000
863.415222	0.000000
863.448486	0.000000
863.481689	0.000000
863.514893	0.000000
863.548157	0.000000
863.581360	0.000000
863.614502	0.000000
863.647766	0.000000
863.680908	0.000000
863.714172	0.000000
863.747375	0.000000
863.780579	0.000000
863.813721	0.000000
863.846985	0.000000
863.880127	0.000000
863.913330	0.000000
863.946533	0.000000
863.979675	0.000000
864.012939	0.000000
