Model Number: SPM-001-M   
Serial Number: 10090201
Firmware Version: 004.17.6
Exposure Time: 500000.000000us
Data Taken on: 27-08-2020 09:44:01.479
Wavelength	Amplitude
733.770752	0.000000
733.808716	0.000000
733.846619	0.000000
733.884583	0.000000
733.922546	0.000000
733.960449	0.000000
733.998413	0.000000
734.036377	0.000000
734.074219	0.000000
734.112183	0.000000
734.150085	0.000000
734.188049	0.000000
734.226013	0.000000
734.263916	0.000000
734.301819	0.000000
734.339783	0.000000
734.377686	0.000000
734.415588	0.000000
734.453552	0.000000
734.491455	0.000000
734.529419	0.000000
734.567322	0.000000
734.605225	0.000000
734.643127	0.000000
734.681091	0.000000
734.718994	0.000000
734.756897	0.000000
734.794800	0.000000
734.832703	0.000000
734.870667	0.000000
734.908508	0.000000
734.946472	0.000000
734.984375	0.000000
735.022278	0.000000
735.060181	0.000000
735.098083	0.000000
735.135986	0.000000
735.173889	0.000000
735.211792	0.000000
735.249695	0.000000
735.287598	0.000000
735.325439	0.000000
735.363403	0.000000
735.401306	0.000000
735.439148	0.000000
735.477051	0.000000
735.515015	0.000000
735.552856	0.000000
735.590759	0.000000
735.628662	0.000000
735.666504	0.000000
735.704407	0.000000
735.742310	0.000000
735.780212	0.000000
735.818115	0.000000
735.856018	0.000000
735.893860	0.000000
735.931763	0.000000
735.969604	0.000000
736.007507	0.000000
736.045410	0.000000
736.083252	0.000000
736.121094	0.000000
736.158997	0.000000
736.196838	0.000000
736.234741	0.000000
736.272644	0.000000
736.310486	0.000000
736.348389	0.000000
736.386230	0.000000
736.424072	0.000000
736.461975	0.000000
736.499878	0.000000
736.537720	0.000000
736.575562	0.000000
736.613403	0.000000
736.651306	0.000000
736.689148	0.000000
736.726990	0.000000
736.764893	0.000000
736.802734	0.000000
736.840576	0.000000
736.878418	0.000000
736.916321	0.000000
736.954102	0.000000
736.992004	0.000000
737.029846	0.000000
737.067688	0.000000
737.105530	0.000000
737.143372	0.000000
737.181213	0.000000
737.219116	0.000000
737.256897	0.000000
737.294739	0.000000
737.332642	0.000000
737.370422	0.000000
737.408325	0.000000
737.446167	0.000000
737.483948	0.000000
737.521790	0.000000
737.559692	0.000000
737.597473	0.000000
737.635315	0.000000
737.673157	0.000000
737.710999	0.000000
737.748840	0.000000
737.786621	0.000000
737.824463	0.000000
737.862305	0.000000
737.900085	0.000000
737.937927	0.000000
737.975769	0.000000
738.013550	0.000000
738.051392	0.000000
738.089233	0.000000
738.127014	0.000000
738.164856	0.000000
738.202698	0.000000
738.240479	0.000000
738.278320	0.000000
738.316162	0.000000
738.353943	0.000000
738.391785	0.000000
738.429565	0.000000
738.467407	0.000000
738.505188	0.000000
738.542969	0.000000
738.580811	0.000000
738.618652	0.000000
738.656372	0.000000
738.694214	0.000000
738.732056	0.000000
738.769836	0.000000
738.807617	0.000000
738.845459	0.000000
738.883240	0.000000
738.921021	0.000000
738.958862	0.000000
738.996582	0.000000
739.034424	0.000000
739.072205	0.000000
739.109985	0.000000
739.147827	0.000000
739.185547	0.000000
739.223389	0.000000
739.261169	0.000000
739.298889	0.000000
739.336731	0.000000
739.374512	0.000000
739.412292	0.000000
739.450073	0.000000
739.487854	0.000000
739.525635	0.000000
739.563416	0.000000
739.601135	0.000000
739.638977	0.000000
739.676758	0.000000
739.714478	0.000000
739.752258	0.000000
739.790100	0.000000
739.827820	0.000000
739.865601	0.000000
739.903381	0.000000
739.941101	0.000000
739.978882	190.000000
740.016724	182.000000
740.054443	184.000000
740.092224	185.000000
740.130005	186.000000
740.167725	181.000000
740.205505	185.000000
740.243225	193.000000
740.281006	185.000000
740.318787	179.000000
740.356506	194.000000
740.394287	187.000000
740.432068	183.000000
740.469727	179.000000
740.507507	191.000000
740.545288	182.000000
740.583008	189.000000
740.620789	183.000000
740.658569	178.000000
740.696228	181.000000
740.734009	192.000000
740.771790	175.000000
740.809509	191.000000
740.847229	180.000000
740.884949	181.000000
740.922729	177.000000
740.960449	184.000000
740.998169	178.000000
741.035950	182.000000
741.073669	183.000000
741.111389	185.000000
741.149170	192.000000
741.186890	195.000000
741.224609	187.000000
741.262329	190.000000
741.300110	191.000000
741.337769	178.000000
741.375549	181.000000
741.413208	183.000000
741.450989	176.000000
741.488708	184.000000
741.526367	178.000000
741.564148	187.000000
741.601868	186.000000
741.639526	185.000000
741.677307	183.000000
741.715027	187.000000
741.752686	178.000000
741.790466	192.000000
741.828186	183.000000
741.865845	179.000000
741.903564	176.000000
741.941345	185.000000
741.979004	180.000000
742.016724	190.000000
742.054382	186.000000
742.092102	191.000000
742.129822	179.000000
742.167480	181.000000
742.205200	185.000000
742.242920	188.000000
742.280640	191.000000
742.318359	181.000000
742.356079	184.000000
742.393738	187.000000
742.431396	183.000000
742.469116	189.000000
742.506775	177.000000
742.544495	183.000000
742.582214	192.000000
742.619873	182.000000
742.657593	189.000000
742.695251	188.000000
742.732971	184.000000
742.770630	182.000000
742.808289	187.000000
742.846008	182.000000
742.883728	184.000000
742.921326	184.000000
742.959045	185.000000
742.996765	179.000000
743.034424	188.000000
743.072083	179.000000
743.109802	185.000000
743.147400	178.000000
743.185120	187.000000
743.222839	180.000000
743.260437	195.000000
743.298157	187.000000
743.335754	177.000000
743.373474	180.000000
743.411133	179.000000
743.448792	181.000000
743.486450	188.000000
743.524170	183.000000
743.561768	184.000000
743.599487	190.000000
743.637146	195.000000
743.674744	183.000000
743.712463	184.000000
743.750122	185.000000
743.787720	190.000000
743.825439	184.000000
743.863037	184.000000
743.900696	182.000000
743.938416	214.000000
743.976013	184.000000
744.013672	189.000000
744.051331	188.000000
744.088928	195.000000
744.126587	190.000000
744.164307	186.000000
744.201904	187.000000
744.239563	186.000000
744.277222	187.000000
744.314819	185.000000
744.352478	192.000000
744.390137	187.000000
744.427734	185.000000
744.465393	184.000000
744.502991	182.000000
744.540649	186.000000
744.578308	186.000000
744.615906	175.000000
744.653564	178.000000
744.691223	191.000000
744.728821	178.000000
744.766418	183.000000
744.804077	191.000000
744.841675	180.000000
744.879333	180.000000
744.916992	185.000000
744.954529	182.000000
744.992187	189.000000
745.029785	182.000000
745.067444	179.000000
745.105042	185.000000
745.142639	182.000000
745.180298	197.000000
745.217896	183.000000
745.255493	185.000000
745.293152	187.000000
745.330750	188.000000
745.368347	185.000000
745.405945	192.000000
745.443604	184.000000
745.481140	189.000000
745.518799	182.000000
745.556396	189.000000
745.593994	186.000000
745.631592	185.000000
745.669189	179.000000
745.706787	186.000000
745.744385	185.000000
745.781982	189.000000
745.819580	181.000000
745.857178	186.000000
745.894775	184.000000
745.932373	186.000000
745.969971	186.000000
746.007568	177.000000
746.045166	191.000000
746.082764	196.000000
746.120300	191.000000
746.157898	183.000000
746.195557	184.000000
746.233093	178.000000
746.270691	191.000000
746.308228	186.000000
746.345825	193.000000
746.383423	185.000000
746.420959	182.000000
746.458557	186.000000
746.496155	183.000000
746.533691	187.000000
746.571289	181.000000
746.608887	182.000000
746.646423	186.000000
746.684021	182.000000
746.721619	185.000000
746.759155	183.000000
746.796753	177.000000
746.834351	176.000000
746.871826	186.000000
746.909424	192.000000
746.946960	185.000000
746.984558	180.000000
747.022156	186.000000
747.059631	189.000000
747.097229	185.000000
747.134827	181.000000
747.172363	189.000000
747.209900	189.000000
747.247498	181.000000
747.285034	187.000000
747.322571	193.000000
747.360168	186.000000
747.397644	180.000000
747.435242	191.000000
747.472778	192.000000
747.510315	178.000000
747.547913	187.000000
747.585388	191.000000
747.622925	182.000000
747.660522	178.000000
747.697998	182.000000
747.735596	184.000000
747.773132	184.000000
747.810669	184.000000
747.848206	188.000000
747.885742	179.000000
747.923279	178.000000
747.960815	188.000000
747.998352	189.000000
748.035889	196.000000
748.073425	189.000000
748.110901	183.000000
748.148437	180.000000
748.185974	189.000000
748.223511	194.000000
748.261047	191.000000
748.298584	185.000000
748.336060	187.000000
748.373596	187.000000
748.411133	206.000000
748.448608	181.000000
748.486145	193.000000
748.523682	194.000000
748.561218	193.000000
748.598755	185.000000
748.636292	183.000000
748.673706	181.000000
748.711243	190.000000
748.748718	184.000000
748.786255	189.000000
748.823792	187.000000
748.861267	178.000000
748.898804	190.000000
748.936340	189.000000
748.973816	180.000000
749.011292	196.000000
749.048828	189.000000
749.086304	189.000000
749.123840	193.000000
749.161316	183.000000
749.198792	192.000000
749.236328	191.000000
749.273743	188.000000
749.311279	184.000000
749.348816	188.000000
749.386230	185.000000
749.423767	174.000000
749.461304	191.000000
749.498718	185.000000
749.536255	193.000000
749.573730	198.000000
749.611206	193.000000
749.648682	185.000000
749.686218	189.000000
749.723633	189.000000
749.761169	185.000000
749.798645	179.000000
749.836060	181.000000
749.873596	182.000000
749.911011	190.000000
749.948547	190.000000
749.986023	185.000000
750.023437	187.000000
750.060913	180.000000
750.098450	178.000000
750.135864	182.000000
750.173340	183.000000
750.210815	189.000000
750.248291	179.000000
750.285767	180.000000
750.323242	190.000000
750.360657	185.000000
750.398132	184.000000
750.435608	184.000000
750.473022	179.000000
750.510498	177.000000
750.547974	184.000000
750.585449	183.000000
750.622925	173.000000
750.660339	190.000000
750.697815	183.000000
750.735291	184.000000
750.772644	192.000000
750.810120	184.000000
750.847595	186.000000
750.885010	177.000000
750.922485	193.000000
750.959961	182.000000
750.997375	195.000000
751.034851	182.000000
751.072266	190.000000
751.109680	172.000000
751.147156	192.000000
751.184570	183.000000
751.221985	189.000000
751.259460	175.000000
751.296875	187.000000
751.334290	181.000000
751.371765	196.000000
751.409180	186.000000
751.446594	190.000000
751.484070	187.000000
751.521423	188.000000
751.558899	185.000000
751.596375	194.000000
751.633728	191.000000
751.671204	194.000000
751.708618	185.000000
751.746033	187.000000
751.783447	177.000000
751.820801	182.000000
751.858276	189.000000
751.895691	186.000000
751.933105	185.000000
751.970520	179.000000
752.007935	184.000000
752.045349	186.000000
752.082764	185.000000
752.120178	180.000000
752.157532	182.000000
752.195007	183.000000
752.232422	191.000000
752.269775	186.000000
752.307190	187.000000
752.344543	178.000000
752.382019	185.000000
752.419434	183.000000
752.456787	187.000000
752.494202	191.000000
752.531616	191.000000
752.568970	186.000000
752.606384	187.000000
752.643799	185.000000
752.681152	190.000000
752.718567	183.000000
752.755981	180.000000
752.793335	186.000000
752.830750	177.000000
752.868164	189.000000
752.905518	180.000000
752.942932	190.000000
752.980225	182.000000
753.017639	184.000000
753.055054	189.000000
753.092407	184.000000
753.129822	192.000000
753.167175	191.000000
753.204529	188.000000
753.241943	181.000000
753.279358	183.000000
753.316650	187.000000
753.354065	185.000000
753.391479	190.000000
753.428772	194.000000
753.466187	189.000000
753.503479	182.000000
753.540894	188.000000
753.578308	181.000000
753.615601	184.000000
753.653015	187.000000
753.690369	184.000000
753.727722	183.000000
753.765076	177.000000
753.802490	183.000000
753.839783	179.000000
753.877136	188.000000
753.914551	198.000000
753.951843	180.000000
753.989258	194.000000
754.026611	179.000000
754.063904	187.000000
754.101257	179.000000
754.138611	175.000000
754.175964	189.000000
754.213318	195.000000
754.250610	175.000000
754.288025	185.000000
754.325378	176.000000
754.362671	188.000000
754.400024	183.000000
754.437378	194.000000
754.474670	192.000000
754.512085	180.000000
754.549438	179.000000
754.586731	183.000000
754.624084	182.000000
754.661438	181.000000
754.698730	188.000000
754.736084	183.000000
754.773376	182.000000
754.810730	191.000000
754.848083	183.000000
754.885315	192.000000
754.922668	175.000000
754.960022	181.000000
754.997314	188.000000
755.034668	184.000000
755.072021	187.000000
755.109253	183.000000
755.146606	188.000000
755.183960	185.000000
755.221252	193.000000
755.258545	187.000000
755.295898	193.000000
755.333191	191.000000
755.370544	187.000000
755.407776	189.000000
755.445129	187.000000
755.482422	197.000000
755.519714	187.000000
755.557068	184.000000
755.594360	179.000000
755.631653	192.000000
755.668945	197.000000
755.706299	193.000000
755.743530	201.000000
755.780884	194.000000
755.818176	194.000000
755.855408	192.000000
755.892761	187.000000
755.930054	187.000000
755.967346	194.000000
756.004639	192.000000
756.041870	187.000000
756.079224	194.000000
756.116516	187.000000
756.153748	188.000000
756.191040	197.000000
756.228394	187.000000
756.265625	183.000000
756.302917	188.000000
756.340210	187.000000
756.377441	193.000000
756.414795	200.000000
756.452087	187.000000
756.489319	185.000000
756.526611	197.000000
756.563843	191.000000
756.601135	197.000000
756.638428	200.000000
756.675659	190.000000
756.712952	192.000000
756.750244	194.000000
756.787476	195.000000
756.824768	197.000000
756.862061	194.000000
756.899292	239.000000
756.936584	196.000000
756.973816	198.000000
757.011047	203.000000
757.048340	191.000000
757.085632	198.000000
757.122864	210.000000
757.160156	192.000000
757.197327	193.000000
757.234619	200.000000
757.271912	195.000000
757.309082	203.000000
757.346375	193.000000
757.383667	199.000000
757.420837	197.000000
757.458130	198.000000
757.495422	191.000000
757.532593	198.000000
757.569885	194.000000
757.607117	191.000000
757.644348	199.000000
757.681580	206.000000
757.718811	183.000000
757.756042	197.000000
757.793335	194.000000
757.830505	193.000000
757.867798	197.000000
757.905029	192.000000
757.942200	199.000000
757.979492	193.000000
758.016724	200.000000
758.053894	190.000000
758.091187	213.000000
758.128418	195.000000
758.165588	198.000000
758.202820	206.000000
758.240112	200.000000
758.277283	204.000000
758.314514	201.000000
758.351685	190.000000
758.388916	209.000000
758.426147	207.000000
758.463379	208.000000
758.500610	203.000000
758.537842	205.000000
758.575012	208.000000
758.612244	197.000000
758.649475	212.000000
758.686646	193.000000
758.723877	201.000000
758.761108	209.000000
758.798279	201.000000
758.835510	205.000000
758.872742	205.000000
758.909851	206.000000
758.947083	201.000000
758.984253	205.000000
759.021484	203.000000
759.058716	208.000000
759.095886	205.000000
759.133057	201.000000
759.170288	201.000000
759.207458	205.000000
759.244690	215.000000
759.281860	209.000000
759.319031	206.000000
759.356262	207.000000
759.393433	203.000000
759.430603	206.000000
759.467773	203.000000
759.505005	213.000000
759.542175	206.000000
759.579346	206.000000
759.616516	202.000000
759.653687	207.000000
759.690918	201.000000
759.728027	205.000000
759.765259	210.000000
759.802429	207.000000
759.839539	207.000000
759.876770	211.000000
759.913940	224.000000
759.951111	204.000000
759.988281	210.000000
760.025452	204.000000
760.062561	205.000000
760.099792	215.000000
760.136963	210.000000
760.174072	202.000000
760.211243	205.000000
760.248413	200.000000
760.285583	202.000000
760.322754	216.000000
760.359863	213.000000
760.397034	209.000000
760.434204	209.000000
760.471375	210.000000
760.508545	208.000000
760.545715	208.000000
760.582825	203.000000
760.619995	211.000000
760.657166	206.000000
760.694275	215.000000
760.731445	216.000000
760.768555	215.000000
760.805664	215.000000
760.842834	208.000000
760.879944	215.000000
760.917114	210.000000
760.954285	211.000000
760.991394	207.000000
761.028564	218.000000
761.065674	214.000000
761.102783	214.000000
761.139954	222.000000
761.177124	221.000000
761.214172	224.000000
761.251343	217.000000
761.288452	218.000000
761.325562	224.000000
761.362732	216.000000
761.399841	224.000000
761.436951	222.000000
761.474121	215.000000
761.511169	223.000000
761.548340	229.000000
761.585449	226.000000
761.622559	222.000000
761.659668	226.000000
761.696838	229.000000
761.733887	220.000000
761.771057	221.000000
761.808167	225.000000
761.845276	225.000000
761.882385	240.000000
761.919434	228.000000
761.956604	245.000000
761.993713	224.000000
762.030762	238.000000
762.067871	227.000000
762.105042	234.000000
762.142090	240.000000
762.179199	234.000000
762.216309	230.000000
762.253418	245.000000
762.290527	236.000000
762.327637	239.000000
762.364685	230.000000
762.401794	240.000000
762.438904	232.000000
762.475952	229.000000
762.513062	223.000000
762.550110	231.000000
762.587219	240.000000
762.624329	238.000000
762.661377	238.000000
762.698486	241.000000
762.735596	235.000000
762.772644	234.000000
762.809753	229.000000
762.846863	240.000000
762.883911	241.000000
762.921021	241.000000
762.958069	237.000000
762.995117	247.000000
763.032227	246.000000
763.069336	233.000000
763.106323	238.000000
763.143433	237.000000
763.180481	242.000000
763.217590	246.000000
763.254639	238.000000
763.291687	245.000000
763.328735	249.000000
763.365845	239.000000
763.402893	236.000000
763.439941	243.000000
763.477051	248.000000
763.514038	250.000000
763.551147	249.000000
763.588196	251.000000
763.625244	251.000000
763.662292	255.000000
763.699402	256.000000
763.736389	247.000000
763.773499	258.000000
763.810486	255.000000
763.847534	253.000000
763.884644	251.000000
763.921631	256.000000
763.958679	266.000000
763.995728	257.000000
764.032776	262.000000
764.069824	254.000000
764.106873	257.000000
764.143860	258.000000
764.180969	252.000000
764.218018	261.000000
764.255005	250.000000
764.292053	255.000000
764.329102	264.000000
764.366089	273.000000
764.403137	265.000000
764.440125	259.000000
764.477173	269.000000
764.514221	266.000000
764.551208	263.000000
764.588257	255.000000
764.625305	257.000000
764.662292	270.000000
764.699341	272.000000
764.736389	267.000000
764.773376	278.000000
764.810425	269.000000
764.847473	275.000000
764.884399	277.000000
764.921448	291.000000
764.958435	282.000000
764.995483	274.000000
765.032532	295.000000
765.069458	274.000000
765.106506	274.000000
765.143555	274.000000
765.180481	277.000000
765.217529	290.000000
765.254578	274.000000
765.291504	283.000000
765.328552	276.000000
765.365540	281.000000
765.402527	296.000000
765.439575	283.000000
765.476501	268.000000
765.513550	277.000000
765.550537	278.000000
765.587463	289.000000
765.624512	278.000000
765.661499	274.000000
765.698486	281.000000
765.735474	276.000000
765.772461	284.000000
765.809448	294.000000
765.846436	285.000000
765.883423	292.000000
765.920410	290.000000
765.957397	286.000000
765.994385	292.000000
766.031311	299.000000
766.068359	285.000000
766.105286	289.000000
766.142273	300.000000
766.179260	293.000000
766.216187	282.000000
766.253174	291.000000
766.290161	291.000000
766.327148	296.000000
766.364136	295.000000
766.401123	310.000000
766.438049	297.000000
766.475037	310.000000
766.512024	308.000000
766.548950	327.000000
766.585937	313.000000
766.622864	314.000000
766.659790	319.000000
766.696777	305.000000
766.733704	318.000000
766.770691	311.000000
766.807678	326.000000
766.844604	323.000000
766.881531	326.000000
766.918518	328.000000
766.955444	331.000000
766.992432	313.000000
767.029358	326.000000
767.066284	332.000000
767.103271	328.000000
767.140198	361.000000
767.177124	344.000000
767.214050	338.000000
767.251038	341.000000
767.287964	328.000000
767.324890	333.000000
767.361816	335.000000
767.398743	341.000000
767.435730	336.000000
767.472595	353.000000
767.509583	351.000000
767.546509	347.000000
767.583374	345.000000
767.620361	333.000000
767.657288	345.000000
767.694214	345.000000
767.731140	343.000000
767.768066	349.000000
767.804993	351.000000
767.841919	341.000000
767.878845	347.000000
767.915710	352.000000
767.952698	348.000000
767.989563	364.000000
768.026489	354.000000
768.063416	349.000000
768.100281	345.000000
768.137207	365.000000
768.174133	364.000000
768.211060	365.000000
768.247986	366.000000
768.284912	365.000000
768.321777	364.000000
768.358704	359.000000
768.395630	362.000000
768.432495	364.000000
768.469421	373.000000
768.506348	370.000000
768.543152	377.000000
768.580078	377.000000
768.616943	377.000000
768.653870	379.000000
768.690796	381.000000
768.727661	376.000000
768.764587	381.000000
768.801453	372.000000
768.838318	383.000000
768.875244	381.000000
768.912109	399.000000
768.948975	384.000000
768.985901	387.000000
769.022766	387.000000
769.059631	388.000000
769.096558	385.000000
769.133362	399.000000
769.170288	393.000000
769.207214	392.000000
769.244019	404.000000
769.280945	401.000000
769.317810	409.000000
769.354675	408.000000
769.391541	412.000000
769.428406	407.000000
769.465271	410.000000
769.502136	404.000000
769.539062	416.000000
769.575867	414.000000
769.612732	416.000000
769.649597	421.000000
769.686462	418.000000
769.723328	413.000000
769.760193	410.000000
769.797058	422.000000
769.833923	429.000000
769.870728	422.000000
769.907593	425.000000
769.944519	424.000000
769.981323	429.000000
770.018188	434.000000
770.055054	426.000000
770.091858	437.000000
770.128723	447.000000
770.165588	445.000000
770.202393	430.000000
770.239258	446.000000
770.276062	432.000000
770.312927	446.000000
770.349792	450.000000
770.386597	444.000000
770.423462	457.000000
770.460327	460.000000
770.497131	441.000000
770.533997	443.000000
770.570862	457.000000
770.607605	454.000000
770.644470	454.000000
770.681335	452.000000
770.718140	453.000000
770.754944	457.000000
770.791809	443.000000
770.828613	448.000000
770.865479	455.000000
770.902222	473.000000
770.939087	465.000000
770.975952	446.000000
771.012695	459.000000
771.049561	472.000000
771.086365	467.000000
771.123169	457.000000
771.159973	461.000000
771.196838	464.000000
771.233582	471.000000
771.270447	471.000000
771.307251	480.000000
771.344055	466.000000
771.380859	475.000000
771.417664	468.000000
771.454468	480.000000
771.491272	471.000000
771.528076	480.000000
771.564880	473.000000
771.601685	490.000000
771.638428	481.000000
771.675293	487.000000
771.712097	471.000000
771.748840	493.000000
771.785645	479.000000
771.822449	484.000000
771.859253	492.000000
771.896057	497.000000
771.932861	504.000000
771.969604	495.000000
772.006409	490.000000
772.043213	515.000000
772.079956	504.000000
772.116760	500.000000
772.153503	505.000000
772.190308	522.000000
772.227112	513.000000
772.263855	509.000000
772.300659	505.000000
772.337463	521.000000
772.374207	518.000000
772.411011	517.000000
772.447754	527.000000
772.484497	533.000000
772.521301	524.000000
772.558105	521.000000
772.594849	523.000000
772.631592	542.000000
772.668396	537.000000
772.705139	546.000000
772.741882	539.000000
772.778625	549.000000
772.815430	557.000000
772.852173	558.000000
772.888916	556.000000
772.925720	564.000000
772.962463	577.000000
772.999207	561.000000
773.035950	574.000000
773.072754	585.000000
773.109436	566.000000
773.146240	570.000000
773.182922	573.000000
773.219727	579.000000
773.256470	575.000000
773.293152	561.000000
773.329956	580.000000
773.366699	580.000000
773.403381	574.000000
773.440186	576.000000
773.476929	589.000000
773.513611	579.000000
773.550354	591.000000
773.587158	589.000000
773.623840	591.000000
773.660583	580.000000
773.697327	589.000000
773.734009	593.000000
773.770813	594.000000
773.807495	598.000000
773.844238	603.000000
773.880981	616.000000
773.917664	606.000000
773.954407	611.000000
773.991150	616.000000
774.027832	629.000000
774.064575	618.000000
774.101318	619.000000
774.138000	619.000000
774.174744	620.000000
774.211487	637.000000
774.248108	628.000000
774.284851	625.000000
774.321594	635.000000
774.358276	616.000000
774.395020	640.000000
774.431702	653.000000
774.468384	652.000000
774.505127	656.000000
774.541809	662.000000
774.578491	654.000000
774.615234	654.000000
774.651917	655.000000
774.688599	658.000000
774.725342	667.000000
774.762024	659.000000
774.798706	653.000000
774.835449	655.000000
774.872070	670.000000
774.908813	678.000000
774.945496	687.000000
774.982178	683.000000
775.018860	660.000000
775.055542	674.000000
775.092224	681.000000
775.128967	693.000000
775.165588	700.000000
775.202271	699.000000
775.239014	689.000000
775.275635	693.000000
775.312317	684.000000
775.349060	696.000000
775.385681	711.000000
775.422363	708.000000
775.459045	712.000000
775.495667	693.000000
775.532410	697.000000
775.569092	700.000000
775.605713	719.000000
775.642395	723.000000
775.679016	724.000000
775.715698	711.000000
775.752380	700.000000
775.789001	694.000000
775.825684	711.000000
775.862366	731.000000
775.898987	731.000000
775.935669	718.000000
775.972351	736.000000
776.008972	728.000000
776.045654	735.000000
776.082336	742.000000
776.118958	748.000000
776.155640	745.000000
776.192322	726.000000
776.228882	730.000000
776.265564	734.000000
776.302185	732.000000
776.338867	749.000000
776.375488	754.000000
776.412109	740.000000
776.448792	742.000000
776.485413	761.000000
776.522034	750.000000
776.558716	751.000000
776.595337	756.000000
776.631958	753.000000
776.668579	733.000000
776.705261	751.000000
776.741882	737.000000
776.778503	757.000000
776.815186	757.000000
776.851746	756.000000
776.888367	750.000000
776.924988	766.000000
776.961609	748.000000
776.998291	753.000000
777.034851	742.000000
777.071472	773.000000
777.108154	755.000000
777.144714	771.000000
777.181335	758.000000
777.218018	762.000000
777.254578	775.000000
777.291199	779.000000
777.327759	784.000000
777.364380	793.000000
777.401062	796.000000
777.437622	818.000000
777.474243	812.000000
777.510864	817.000000
777.547424	817.000000
777.584045	826.000000
777.620667	824.000000
777.657227	827.000000
777.693848	816.000000
777.730469	853.000000
777.767029	817.000000
777.803650	835.000000
777.840271	830.000000
777.876831	847.000000
777.913452	849.000000
777.950012	835.000000
777.986633	832.000000
778.023193	840.000000
778.059753	840.000000
778.096375	828.000000
778.132996	840.000000
778.169556	835.000000
778.206116	827.000000
778.242737	841.000000
778.279297	853.000000
778.315857	840.000000
778.352478	856.000000
778.389038	865.000000
778.425598	870.000000
778.462219	881.000000
778.498718	881.000000
778.535339	873.000000
778.571838	892.000000
778.608459	896.000000
778.645020	883.000000
778.681580	887.000000
778.718140	890.000000
778.754761	873.000000
778.791260	881.000000
778.827881	881.000000
778.864441	872.000000
778.900940	888.000000
778.937561	884.000000
778.974121	905.000000
779.010620	895.000000
779.047241	911.000000
779.083801	924.000000
779.120300	931.000000
779.156860	931.000000
779.193359	937.000000
779.229980	938.000000
779.266541	957.000000
779.303040	953.000000
779.339600	941.000000
779.376160	939.000000
779.412659	952.000000
779.449219	954.000000
779.485779	970.000000
779.522278	954.000000
779.558838	957.000000
779.595398	949.000000
779.631897	960.000000
779.668457	940.000000
779.705017	972.000000
779.741516	946.000000
779.778076	925.000000
779.814575	928.000000
779.851074	942.000000
779.887634	932.000000
779.924133	940.000000
779.960693	930.000000
779.997253	922.000000
780.033691	918.000000
780.070251	921.000000
780.106812	942.000000
780.143250	941.000000
780.179810	943.000000
780.216370	941.000000
780.252808	931.000000
780.289368	938.000000
780.325867	936.000000
780.362366	950.000000
780.398865	955.000000
780.435364	958.000000
780.471863	966.000000
780.508423	955.000000
780.544861	952.000000
780.581421	972.000000
780.617920	955.000000
780.654419	955.000000
780.690918	949.000000
780.727417	944.000000
780.763916	940.000000
780.800415	933.000000
780.836914	940.000000
780.873352	953.000000
780.909912	939.000000
780.946411	935.000000
780.982849	923.000000
781.019348	938.000000
781.055786	907.000000
781.092346	909.000000
781.128845	901.000000
781.165283	886.000000
781.201782	870.000000
781.238281	856.000000
781.274719	850.000000
781.311218	831.000000
781.347717	844.000000
781.384155	819.000000
781.420654	797.000000
781.457092	805.000000
781.493591	776.000000
781.530090	760.000000
781.566528	751.000000
781.602966	734.000000
781.639465	707.000000
781.675903	693.000000
781.712402	671.000000
781.748901	665.000000
781.785278	640.000000
781.821777	615.000000
781.858276	603.000000
781.894714	592.000000
781.931152	562.000000
781.967651	554.000000
782.004089	529.000000
782.040527	514.000000
782.076965	502.000000
782.113403	492.000000
782.149902	478.000000
782.186340	451.000000
782.222778	460.000000
782.259277	439.000000
782.295654	429.000000
782.332092	433.000000
782.368591	429.000000
782.404968	425.000000
782.441467	435.000000
782.477905	443.000000
782.514282	451.000000
782.550781	466.000000
782.587219	481.000000
782.623596	492.000000
782.660095	522.000000
782.696472	549.000000
782.732910	572.000000
782.769348	587.000000
782.805786	644.000000
782.842224	667.000000
782.878662	704.000000
782.915039	743.000000
782.951477	768.000000
782.987915	794.000000
783.024292	823.000000
783.060730	850.000000
783.097168	883.000000
783.133545	907.000000
783.169983	941.000000
783.206421	975.000000
783.242798	980.000000
783.279236	987.000000
783.315613	1008.000000
783.352051	1026.000000
783.388489	1029.000000
783.424866	1042.000000
783.461304	1051.000000
783.497681	1083.000000
783.534058	1099.000000
783.570496	1093.000000
783.606934	1128.000000
783.643250	1128.000000
783.679687	1140.000000
783.716125	1136.000000
783.752441	1156.000000
783.788879	1165.000000
783.825317	1197.000000
783.861633	1197.000000
783.898071	1187.000000
783.934448	1212.000000
783.970825	1221.000000
784.007263	1208.000000
784.043579	1240.000000
784.080017	1238.000000
784.116394	1247.000000
784.152710	1221.000000
784.189148	1228.000000
784.225525	1220.000000
784.261902	1219.000000
784.298279	1226.000000
784.334656	1235.000000
784.371033	1205.000000
784.407410	1180.000000
784.443787	1178.000000
784.480164	1181.000000
784.516541	1178.000000
784.552856	1193.000000
784.589233	1184.000000
784.625610	1171.000000
784.661987	1187.000000
784.698364	1188.000000
784.734741	1211.000000
784.771057	1217.000000
784.807434	1232.000000
784.843811	1222.000000
784.880127	1196.000000
784.916504	1233.000000
784.952881	1256.000000
784.989197	1270.000000
785.025574	1296.000000
785.061951	1310.000000
785.098267	1303.000000
785.134644	1310.000000
785.170959	1324.000000
785.207275	1365.000000
785.243652	1383.000000
785.279968	1365.000000
785.316345	1336.000000
785.352722	1317.000000
785.388977	1301.000000
785.425354	1313.000000
785.461731	1308.000000
785.498047	1281.000000
785.534363	1253.000000
785.570679	1229.000000
785.606995	1206.000000
785.643372	1193.000000
785.679687	1201.000000
785.716003	1199.000000
785.752380	1175.000000
785.788635	1147.000000
785.825012	1160.000000
785.861328	1167.000000
785.897644	1183.000000
785.933960	1233.000000
785.970337	1263.000000
786.006592	1281.000000
786.042908	1275.000000
786.079285	1301.000000
786.115540	1329.000000
786.151855	1363.000000
786.188171	1415.000000
786.224487	1441.000000
786.260803	1450.000000
786.297119	1465.000000
786.333435	1466.000000
786.369751	1483.000000
786.406006	1510.000000
786.442322	1495.000000
786.478638	1445.000000
786.514954	1425.000000
786.551270	1364.000000
786.587585	1342.000000
786.623840	1317.000000
786.660156	1310.000000
786.696472	1296.000000
786.732727	1249.000000
786.769043	1220.000000
786.805298	1200.000000
786.841614	1206.000000
786.877930	1238.000000
786.914124	1212.000000
786.950439	1242.000000
786.986755	1253.000000
787.023010	1268.000000
787.059326	1249.000000
787.095642	1290.000000
787.131836	1353.000000
787.168152	1352.000000
787.204468	1367.000000
787.240723	1399.000000
787.276978	1390.000000
787.313293	1422.000000
787.349548	1449.000000
787.385803	1478.000000
787.422058	1485.000000
787.458313	1465.000000
787.494629	1450.000000
787.530823	1420.000000
787.567139	1430.000000
787.603455	1440.000000
787.639648	1419.000000
787.675903	1413.000000
787.712219	1380.000000
787.748413	1357.000000
787.784729	1347.000000
787.820984	1317.000000
787.857178	1322.000000
787.893494	1311.000000
787.929749	1295.000000
787.965942	1295.000000
788.002258	1288.000000
788.038452	1313.000000
788.074707	1318.000000
788.110962	1334.000000
788.147217	1319.000000
788.183472	1334.000000
788.219727	1316.000000
788.255920	1322.000000
788.292175	1340.000000
788.328430	1329.000000
788.364624	1329.000000
788.400879	1345.000000
788.437134	1345.000000
788.473328	1325.000000
788.509583	1328.000000
788.545837	1347.000000
788.582031	1349.000000
788.618286	1343.000000
788.654480	1362.000000
788.690735	1359.000000
788.726990	1392.000000
788.763184	1394.000000
788.799377	1400.000000
788.835632	1411.000000
788.871826	1435.000000
788.908081	1417.000000
788.944336	1424.000000
788.980469	1416.000000
789.016724	1414.000000
789.052979	1418.000000
789.089111	1409.000000
789.125366	1409.000000
789.161621	1377.000000
789.197754	1376.000000
789.234009	1331.000000
789.270142	1335.000000
789.306396	1344.000000
789.342590	1343.000000
789.378784	1341.000000
789.414978	1308.000000
789.451233	1300.000000
789.487366	1303.000000
789.523621	1305.000000
789.559814	1331.000000
789.595947	1334.000000
789.632202	1355.000000
789.668335	1332.000000
789.704529	1330.000000
789.740784	1356.000000
789.776917	1357.000000
789.813110	1391.000000
789.849304	1421.000000
789.885498	1400.000000
789.921692	1414.000000
789.957886	1395.000000
789.994019	1401.000000
790.030212	1414.000000
790.066406	1432.000000
790.102539	1437.000000
790.138733	1438.000000
790.174927	1391.000000
790.211060	1381.000000
790.247253	1378.000000
790.283386	1399.000000
790.319580	1405.000000
790.355774	1373.000000
790.391907	1284.000000
790.428101	1207.000000
790.464294	1039.000000
790.500427	909.000000
790.536621	744.000000
790.572754	616.000000
790.608887	549.000000
790.645081	582.000000
790.681274	748.000000
790.717346	973.000000
790.753540	1195.000000
790.789734	1344.000000
790.825867	1380.000000
790.862000	1372.000000
790.898132	1367.000000
790.934265	1360.000000
790.970459	1355.000000
791.006592	1375.000000
791.042725	1383.000000
791.078918	1371.000000
791.114990	1335.000000
791.151184	1314.000000
791.187317	1300.000000
791.223389	1326.000000
791.259583	1338.000000
791.295715	1359.000000
791.331848	1361.000000
791.367981	1374.000000
791.404114	1350.000000
791.440247	1359.000000
791.476379	1394.000000
791.512451	1409.000000
791.548584	1438.000000
791.584778	1424.000000
791.620850	1431.000000
791.656982	1425.000000
791.693115	1404.000000
791.729187	1422.000000
791.765381	1437.000000
791.801514	1462.000000
791.837585	1450.000000
791.873718	1434.000000
791.909851	1442.000000
791.945923	1451.000000
791.982056	1457.000000
792.018188	1480.000000
792.054260	1485.000000
792.090393	1487.000000
792.126465	1460.000000
792.162598	1435.000000
792.198669	1445.000000
792.234741	1485.000000
792.270874	1477.000000
792.307007	1449.000000
792.343079	1445.000000
792.379150	1435.000000
792.415283	1408.000000
792.451355	1443.000000
792.487488	1423.000000
792.523560	1425.000000
792.559631	1427.000000
792.595764	1381.000000
792.631836	1385.000000
792.667908	1397.000000
792.703979	1403.000000
792.740051	1426.000000
792.776184	1416.000000
792.812256	1393.000000
792.848328	1387.000000
792.884399	1378.000000
792.920471	1403.000000
792.956543	1410.000000
792.992615	1421.000000
793.028748	1421.000000
793.064758	1399.000000
793.100830	1418.000000
793.136963	1412.000000
793.172974	1416.000000
793.209045	1425.000000
793.245178	1445.000000
793.281189	1430.000000
793.317261	1411.000000
793.353271	1402.000000
793.389404	1419.000000
793.425476	1416.000000
793.461487	1428.000000
793.497559	1406.000000
793.533630	1431.000000
793.569641	1383.000000
793.605713	1376.000000
793.641785	1382.000000
793.677795	1392.000000
793.713867	1386.000000
793.749878	1405.000000
793.785950	1411.000000
793.822021	1405.000000
793.858032	1380.000000
793.894104	1402.000000
793.930176	1407.000000
793.966187	1432.000000
794.002258	1415.000000
794.038269	1409.000000
794.074280	1404.000000
794.110352	1409.000000
794.146423	1388.000000
794.182373	1390.000000
794.218445	1420.000000
794.254517	1426.000000
794.290466	1404.000000
794.326538	1394.000000
794.362549	1386.000000
794.398560	1377.000000
794.434631	1364.000000
794.470581	1354.000000
794.506653	1332.000000
794.542664	1334.000000
794.578674	1304.000000
794.614685	1311.000000
794.650757	1313.000000
794.686707	1326.000000
794.722778	1333.000000
794.758789	1328.000000
794.794739	1343.000000
794.830811	1358.000000
794.866821	1332.000000
794.902771	1343.000000
794.938843	1365.000000
794.974792	1363.000000
795.010803	1370.000000
795.046814	1373.000000
795.082825	1342.000000
795.118835	1359.000000
795.154846	1344.000000
795.190796	1364.000000
795.226807	1340.000000
795.262817	1345.000000
795.298767	1322.000000
795.334778	1314.000000
795.370850	1292.000000
795.406799	1306.000000
795.442810	1293.000000
795.478821	1290.000000
795.514709	1293.000000
795.550720	1281.000000
795.586670	1255.000000
795.622681	1237.000000
795.658691	1248.000000
795.694641	1266.000000
795.730652	1249.000000
795.766663	1265.000000
795.802551	1257.000000
795.838562	1256.000000
795.874573	1251.000000
795.910522	1244.000000
795.946472	1250.000000
795.982483	1255.000000
796.018433	1254.000000
796.054382	1232.000000
796.090393	1242.000000
796.126282	1222.000000
796.162292	1253.000000
796.198242	1281.000000
796.234192	1277.000000
796.270203	1271.000000
796.306091	1256.000000
796.342041	1261.000000
796.378052	1253.000000
796.413940	1277.000000
796.449951	1284.000000
796.485901	1273.000000
796.521790	1238.000000
796.557800	1250.000000
796.593689	1243.000000
796.629639	1249.000000
796.665649	1277.000000
796.701599	1285.000000
796.737488	1272.000000
796.773437	1253.000000
796.809387	1264.000000
796.845337	1266.000000
796.881287	1286.000000
796.917175	1299.000000
796.953125	1305.000000
796.989075	1293.000000
797.024963	1265.000000
797.060913	1277.000000
797.096863	1272.000000
797.132751	1261.000000
797.168701	1275.000000
797.204590	1257.000000
797.240540	1231.000000
797.276489	1218.000000
797.312439	1213.000000
797.348328	1216.000000
797.384277	1224.000000
797.420166	1244.000000
797.456055	1237.000000
797.492004	1218.000000
797.527893	1189.000000
797.563843	1193.000000
797.599731	1209.000000
797.635620	1231.000000
797.671570	1232.000000
797.707520	1228.000000
797.743347	1195.000000
797.779297	1205.000000
797.815125	1198.000000
797.851074	1229.000000
797.887024	1243.000000
797.922913	1253.000000
797.958801	1243.000000
797.994690	1210.000000
798.030579	1200.000000
798.066467	1219.000000
798.102356	1203.000000
798.138245	1229.000000
798.174133	1214.000000
798.210083	1205.000000
798.245911	1201.000000
798.281799	1201.000000
798.317749	1193.000000
798.353577	1217.000000
798.389465	1219.000000
798.425293	1206.000000
798.461243	1187.000000
798.497131	1174.000000
798.532959	1185.000000
798.568848	1215.000000
798.604736	1207.000000
798.640564	1197.000000
798.676453	1204.000000
798.712402	1184.000000
798.748230	1170.000000
798.784119	1167.000000
798.820007	1184.000000
798.855835	1206.000000
798.891724	1201.000000
798.927551	1187.000000
798.963379	1158.000000
798.999268	1166.000000
799.035095	1173.000000
799.070984	1172.000000
799.106873	1189.000000
799.142700	1189.000000
799.178528	1155.000000
799.214417	1159.000000
799.250244	1166.000000
799.286133	1168.000000
799.321960	1192.000000
799.357788	1177.000000
799.393677	1177.000000
799.429504	1182.000000
799.465332	1158.000000
799.501221	1148.000000
799.537048	1169.000000
799.572876	1173.000000
799.608704	1168.000000
799.644531	1167.000000
799.680359	1156.000000
799.716248	1158.000000
799.752014	1169.000000
799.787903	1171.000000
799.823730	1187.000000
799.859558	1187.000000
799.895386	1153.000000
799.931213	1135.000000
799.967041	1111.000000
800.002869	1109.000000
800.038696	1145.000000
800.074463	1123.000000
800.110352	1137.000000
800.146179	1106.000000
800.181946	1110.000000
800.217773	1107.000000
800.253540	1117.000000
800.289429	1133.000000
800.325256	1127.000000
800.361023	1089.000000
800.396851	1094.000000
800.432678	1090.000000
800.468445	1089.000000
800.504272	1101.000000
800.540100	1103.000000
800.575867	1087.000000
800.611694	1097.000000
800.647461	1070.000000
800.683289	1064.000000
800.719116	1090.000000
800.754883	1065.000000
800.790649	1043.000000
800.826477	1063.000000
800.862244	1068.000000
800.898071	1027.000000
800.933838	1026.000000
800.969604	1015.000000
801.005432	1044.000000
801.041199	1033.000000
801.076965	1039.000000
801.112793	1017.000000
801.148560	1002.000000
801.184326	1013.000000
801.220154	1005.000000
801.255859	991.000000
801.291687	1003.000000
801.327454	987.000000
801.363281	999.000000
801.398987	973.000000
801.434814	960.000000
801.470520	981.000000
801.506287	991.000000
801.542114	957.000000
801.577820	973.000000
801.613647	951.000000
801.649414	947.000000
801.685120	961.000000
801.720886	972.000000
801.756714	956.000000
801.792419	967.000000
801.828186	963.000000
801.863892	947.000000
801.899719	952.000000
801.935486	942.000000
801.971252	940.000000
802.006958	947.000000
802.042725	954.000000
802.078430	945.000000
802.114197	931.000000
802.149963	943.000000
802.185669	927.000000
802.221436	947.000000
802.257202	939.000000
802.292908	931.000000
802.328674	929.000000
802.364441	936.000000
802.400146	917.000000
802.435913	926.000000
802.471558	933.000000
802.507324	914.000000
802.543091	917.000000
802.578796	927.000000
802.614502	924.000000
802.650269	937.000000
802.685974	926.000000
802.721741	919.000000
802.757446	947.000000
802.793152	905.000000
802.828918	916.000000
802.864624	909.000000
802.900330	912.000000
802.936035	923.000000
802.971802	927.000000
803.007446	909.000000
803.043213	890.000000
803.078857	893.000000
803.114624	888.000000
803.150330	880.000000
803.185974	893.000000
803.221741	869.000000
803.257446	884.000000
803.293152	875.000000
803.328857	865.000000
803.364563	853.000000
803.400208	863.000000
803.435974	876.000000
803.471680	872.000000
803.507324	858.000000
803.543030	856.000000
803.578735	849.000000
803.614441	841.000000
803.650146	842.000000
803.685791	828.000000
803.721497	858.000000
803.757202	838.000000
803.792847	843.000000
803.828552	827.000000
803.864258	830.000000
803.899902	826.000000
803.935608	810.000000
803.971313	809.000000
804.006958	811.000000
804.042664	804.000000
804.078308	823.000000
804.113953	807.000000
804.149658	820.000000
804.185364	804.000000
804.221008	809.000000
804.256714	791.000000
804.292297	789.000000
804.328003	791.000000
804.363708	774.000000
804.399292	784.000000
804.434998	777.000000
804.470703	768.000000
804.506287	780.000000
804.541992	770.000000
804.577637	783.000000
804.613281	764.000000
804.648926	758.000000
804.684570	766.000000
804.720215	769.000000
804.755920	750.000000
804.791565	752.000000
804.827209	760.000000
804.862854	753.000000
804.898437	757.000000
804.934143	762.000000
804.969788	752.000000
805.005371	757.000000
805.041077	756.000000
805.076721	753.000000
805.112305	740.000000
805.147949	743.000000
805.183655	745.000000
805.219238	760.000000
805.254883	735.000000
805.290466	749.000000
805.326111	729.000000
805.361755	743.000000
805.397400	747.000000
805.432983	741.000000
805.468628	739.000000
805.504211	740.000000
805.539856	735.000000
805.575500	737.000000
805.611084	728.000000
805.646729	737.000000
805.682373	730.000000
805.717957	737.000000
805.753601	728.000000
805.789246	711.000000
805.824768	738.000000
805.860413	753.000000
805.895996	727.000000
805.931641	725.000000
805.967224	730.000000
806.002869	720.000000
806.038452	729.000000
806.074036	725.000000
806.109619	710.000000
806.145264	715.000000
806.180847	711.000000
806.216431	706.000000
806.252014	700.000000
806.287659	705.000000
806.323181	703.000000
806.358826	704.000000
806.394409	687.000000
806.429993	692.000000
806.465576	701.000000
806.501160	671.000000
806.536743	673.000000
806.572327	682.000000
806.607910	693.000000
806.643494	686.000000
806.679077	672.000000
806.714661	674.000000
806.750244	664.000000
806.785828	661.000000
806.821350	655.000000
806.856934	661.000000
806.892517	654.000000
806.928101	651.000000
806.963684	651.000000
806.999268	655.000000
807.034790	637.000000
807.070374	649.000000
807.105896	650.000000
807.141479	639.000000
807.177063	634.000000
807.212585	623.000000
807.248169	629.000000
807.283752	641.000000
807.319275	625.000000
807.354858	637.000000
807.390381	636.000000
807.425903	620.000000
807.461487	624.000000
807.497070	611.000000
807.532593	617.000000
807.568115	612.000000
807.603699	620.000000
807.639221	603.000000
807.674744	605.000000
807.710266	605.000000
807.745850	620.000000
807.781372	598.000000
807.816895	603.000000
807.852417	609.000000
807.888000	602.000000
807.923523	604.000000
807.959045	596.000000
807.994629	594.000000
808.030090	594.000000
808.065613	591.000000
808.101135	591.000000
808.136658	589.000000
808.172241	595.000000
808.207764	590.000000
808.243225	588.000000
808.278809	588.000000
808.314270	595.000000
808.349792	576.000000
808.385315	569.000000
808.420837	574.000000
808.456360	577.000000
808.491882	576.000000
808.527344	574.000000
808.562866	585.000000
808.598389	569.000000
808.633850	576.000000
808.669434	571.000000
808.704895	565.000000
808.740417	567.000000
808.775940	568.000000
808.811462	557.000000
808.846924	555.000000
808.882385	544.000000
808.917847	545.000000
808.953369	548.000000
808.988892	551.000000
809.024353	549.000000
809.059875	553.000000
809.095398	545.000000
809.130798	537.000000
809.166321	533.000000
809.201843	536.000000
809.237305	538.000000
809.272766	547.000000
809.308228	533.000000
809.343750	531.000000
809.379211	531.000000
809.414734	530.000000
809.450134	533.000000
809.485657	520.000000
809.521118	524.000000
809.556580	523.000000
809.592102	519.000000
809.627502	513.000000
809.663025	505.000000
809.698486	504.000000
809.733887	498.000000
809.769409	508.000000
809.804871	493.000000
809.840271	495.000000
809.875793	510.000000
809.911194	502.000000
809.946655	501.000000
809.982178	486.000000
810.017639	499.000000
810.053040	488.000000
810.088501	488.000000
810.123901	491.000000
810.159424	493.000000
810.194885	476.000000
810.230286	485.000000
810.265747	483.000000
810.301208	474.000000
810.336609	477.000000
810.372070	471.000000
810.407532	473.000000
810.442932	484.000000
810.478394	482.000000
810.513794	476.000000
810.549255	475.000000
810.584717	478.000000
810.620117	464.000000
810.655518	478.000000
810.690979	456.000000
810.726379	466.000000
810.761841	454.000000
810.797302	456.000000
810.832642	460.000000
810.868103	470.000000
810.903564	448.000000
810.938904	466.000000
810.974365	446.000000
811.009827	458.000000
811.045166	454.000000
811.080627	452.000000
811.115967	449.000000
811.151428	456.000000
811.186829	451.000000
811.222229	448.000000
811.257629	430.000000
811.293091	443.000000
811.328430	453.000000
811.363892	446.000000
811.399292	442.000000
811.434631	443.000000
811.470093	447.000000
811.505493	438.000000
811.540833	434.000000
811.576294	440.000000
811.611694	433.000000
811.647034	441.000000
811.682434	431.000000
811.717773	431.000000
811.753235	446.000000
811.788635	441.000000
811.823975	440.000000
811.859375	439.000000
811.894775	417.000000
811.930115	433.000000
811.965515	433.000000
812.000916	437.000000
812.036255	430.000000
812.071655	427.000000
812.106995	419.000000
812.142395	419.000000
812.177795	429.000000
812.213196	421.000000
812.248474	421.000000
812.283875	417.000000
812.319214	424.000000
812.354614	416.000000
812.390015	414.000000
812.425293	411.000000
812.460693	404.000000
812.496094	409.000000
812.531433	406.000000
812.566772	401.000000
812.602173	407.000000
812.637451	400.000000
812.672852	397.000000
812.708191	401.000000
812.743530	394.000000
812.778931	387.000000
812.814270	393.000000
812.849609	390.000000
812.884949	397.000000
812.920227	378.000000
812.955627	398.000000
812.990967	396.000000
813.026306	387.000000
813.061646	369.000000
813.096985	379.000000
813.132324	366.000000
813.167664	370.000000
813.203003	376.000000
813.238281	373.000000
813.273682	367.000000
813.308960	359.000000
813.344299	368.000000
813.379639	373.000000
813.414978	365.000000
813.450256	365.000000
813.485596	370.000000
813.520874	361.000000
813.556213	362.000000
813.591614	363.000000
813.626831	364.000000
813.662170	361.000000
813.697510	364.000000
813.732788	353.000000
813.768127	361.000000
813.803467	363.000000
813.838745	360.000000
813.874084	358.000000
813.909363	358.000000
813.944641	359.000000
813.979980	351.000000
814.015320	358.000000
814.050598	356.000000
814.085876	351.000000
814.121155	352.000000
814.156494	345.000000
814.191772	344.000000
814.227051	340.000000
814.262390	358.000000
814.297668	346.000000
814.332947	350.000000
814.368225	337.000000
814.403564	347.000000
814.438782	335.000000
814.474121	344.000000
814.509338	341.000000
814.544617	352.000000
814.579956	341.000000
814.615173	349.000000
814.650513	336.000000
814.685791	336.000000
814.721008	335.000000
814.756348	329.000000
814.791626	329.000000
814.826843	336.000000
814.862122	328.000000
814.897400	327.000000
814.932678	332.000000
814.967957	334.000000
815.003235	331.000000
815.038452	315.000000
815.073730	317.000000
815.108948	330.000000
815.144226	327.000000
815.179504	336.000000
815.214722	318.000000
815.250000	311.000000
815.285278	325.000000
815.320496	318.000000
815.355774	325.000000
815.391052	321.000000
815.426270	317.000000
815.461487	308.000000
815.496765	312.000000
815.531982	306.000000
815.567261	310.000000
815.602539	319.000000
815.637695	313.000000
815.672974	316.000000
815.708191	311.000000
815.743408	310.000000
815.778687	305.000000
815.813904	311.000000
815.849121	302.000000
815.884399	298.000000
815.919556	299.000000
815.954834	296.000000
815.990051	309.000000
816.025269	307.000000
816.060486	298.000000
816.095703	294.000000
816.130920	300.000000
816.166199	297.000000
816.201416	297.000000
816.236572	303.000000
816.271851	290.000000
816.307007	291.000000
816.342224	286.000000
816.377441	290.000000
816.412659	284.000000
816.447876	295.000000
816.483093	294.000000
816.518250	287.000000
816.553467	289.000000
816.588745	286.000000
816.623901	284.000000
816.659119	269.000000
816.694275	286.000000
816.729492	274.000000
816.764709	314.000000
816.799927	282.000000
816.835083	286.000000
816.870300	276.000000
816.905457	283.000000
816.940674	287.000000
816.975830	278.000000
817.010986	272.000000
817.046204	277.000000
817.081421	266.000000
817.116577	272.000000
817.151733	281.000000
817.186951	274.000000
817.222107	276.000000
817.257324	276.000000
817.292419	273.000000
817.327637	273.000000
817.362854	277.000000
817.398010	267.000000
817.433167	278.000000
817.468323	269.000000
817.503479	272.000000
817.538635	277.000000
817.573853	274.000000
817.608948	270.000000
817.644165	273.000000
817.679321	265.000000
817.714478	270.000000
817.749634	265.000000
817.784790	278.000000
817.819946	265.000000
817.855103	256.000000
817.890198	262.000000
817.925415	257.000000
817.960571	265.000000
817.995667	266.000000
818.030823	269.000000
818.066040	265.000000
818.101135	265.000000
818.136292	265.000000
818.171448	255.000000
818.206543	266.000000
818.241699	263.000000
818.276855	264.000000
818.311951	259.000000
818.347107	253.000000
818.382263	260.000000
818.417358	266.000000
818.452515	269.000000
818.487610	268.000000
818.522766	251.000000
818.557922	262.000000
818.593018	263.000000
818.628113	263.000000
818.663269	255.000000
818.698364	263.000000
818.733521	253.000000
818.768677	260.000000
818.803711	256.000000
818.838867	249.000000
818.874023	254.000000
818.909058	252.000000
818.944214	254.000000
818.979370	259.000000
819.014404	253.000000
819.049561	242.000000
819.084595	251.000000
819.119751	244.000000
819.154846	253.000000
819.189941	246.000000
819.225037	242.000000
819.260193	242.000000
819.295227	245.000000
819.330322	239.000000
819.365479	239.000000
819.400513	263.000000
819.435608	236.000000
819.470764	227.000000
819.505798	236.000000
819.540894	243.000000
819.575989	237.000000
819.611084	243.000000
819.646179	249.000000
819.681213	240.000000
819.716309	240.000000
819.751404	235.000000
819.786438	248.000000
819.821533	233.000000
819.856628	238.000000
819.891663	236.000000
819.926758	241.000000
819.961853	241.000000
819.996887	236.000000
820.031982	234.000000
820.067017	229.000000
820.102112	260.000000
820.137207	230.000000
820.172302	246.000000
820.207275	227.000000
820.242371	229.000000
820.277405	232.000000
820.312500	232.000000
820.347534	230.000000
820.382568	238.000000
820.417664	234.000000
820.452759	225.000000
820.487732	229.000000
820.522827	229.000000
820.557861	229.000000
820.592896	229.000000
820.627930	228.000000
820.662964	227.000000
820.698059	232.000000
820.733093	230.000000
820.768127	232.000000
820.803162	228.000000
820.838196	224.000000
820.873230	226.000000
820.908264	229.000000
820.943298	224.000000
820.978333	227.000000
821.013367	230.000000
821.048401	226.000000
821.083435	229.000000
821.118469	217.000000
821.153503	230.000000
821.188477	226.000000
821.223511	223.000000
821.258484	222.000000
821.293579	224.000000
821.328613	216.000000
821.363647	219.000000
821.398621	214.000000
821.433655	218.000000
821.468628	226.000000
821.503662	220.000000
821.538696	222.000000
821.573669	219.000000
821.608704	221.000000
821.643677	220.000000
821.678650	218.000000
821.713684	228.000000
821.748718	219.000000
821.783691	223.000000
821.818726	216.000000
821.853638	223.000000
821.888672	214.000000
821.923706	219.000000
821.958618	214.000000
821.993652	215.000000
822.028687	217.000000
822.063599	219.000000
822.098633	216.000000
822.133667	214.000000
822.168579	216.000000
822.203613	220.000000
822.238586	211.000000
822.273560	223.000000
822.308533	211.000000
822.343567	214.000000
822.378479	214.000000
822.413452	212.000000
822.448425	209.000000
822.483398	221.000000
822.518372	219.000000
822.553345	209.000000
822.588318	219.000000
822.623291	212.000000
822.658203	213.000000
822.693237	215.000000
822.728210	210.000000
822.763123	213.000000
822.798096	206.000000
822.833069	210.000000
822.867981	209.000000
822.902954	211.000000
822.937927	211.000000
822.972900	216.000000
823.007874	202.000000
823.042725	211.000000
823.077698	219.000000
823.112671	202.000000
823.147583	211.000000
823.182556	201.000000
823.217529	215.000000
823.252441	203.000000
823.287415	219.000000
823.322388	204.000000
823.357239	210.000000
823.392212	212.000000
823.427185	211.000000
823.462097	201.000000
823.497009	211.000000
823.531982	204.000000
823.566895	206.000000
823.601807	201.000000
823.636719	201.000000
823.671631	208.000000
823.706604	204.000000
823.741455	206.000000
823.776428	194.000000
823.811340	209.000000
823.846252	212.000000
823.881165	212.000000
823.916138	208.000000
823.950989	213.000000
823.985901	204.000000
824.020813	203.000000
824.055725	204.000000
824.090637	200.000000
824.125610	206.000000
824.160461	206.000000
824.195374	206.000000
824.230225	204.000000
824.265198	200.000000
824.300110	205.000000
824.334961	214.000000
824.369873	196.000000
824.404785	201.000000
824.439636	212.000000
824.474548	197.000000
824.509460	194.000000
824.544312	207.000000
824.579224	203.000000
824.614075	197.000000
824.648987	198.000000
824.683899	201.000000
824.718811	199.000000
824.753662	204.000000
824.788574	202.000000
824.823364	201.000000
824.858276	195.000000
824.893188	206.000000
824.928040	205.000000
824.962952	196.000000
824.997803	203.000000
825.032654	199.000000
825.067566	198.000000
825.102417	194.000000
825.137268	200.000000
825.172119	191.000000
825.206970	195.000000
825.241882	195.000000
825.276733	198.000000
825.311646	195.000000
825.346436	195.000000
825.381348	199.000000
825.416138	197.000000
825.450989	194.000000
825.485901	191.000000
825.520691	193.000000
825.555542	191.000000
825.590454	192.000000
825.625244	192.000000
825.660095	201.000000
825.695007	197.000000
825.729797	195.000000
825.764648	190.000000
825.799438	190.000000
825.834290	197.000000
825.869202	190.000000
825.903992	199.000000
825.938843	195.000000
825.973694	190.000000
826.008484	204.000000
826.043335	192.000000
826.078186	190.000000
826.112976	200.000000
826.147827	202.000000
826.182678	206.000000
826.217468	186.000000
826.252319	200.000000
826.287109	193.000000
826.321899	198.000000
826.356750	196.000000
826.391541	188.000000
826.426392	196.000000
826.461182	193.000000
826.495972	192.000000
826.530823	182.000000
826.565613	194.000000
826.600403	187.000000
826.635254	194.000000
826.670044	185.000000
826.704834	184.000000
826.739685	181.000000
826.774475	196.000000
826.809265	190.000000
826.844055	193.000000
826.878906	199.000000
826.913635	194.000000
826.948425	190.000000
826.983215	196.000000
827.018005	195.000000
827.052856	192.000000
827.087585	193.000000
827.122375	183.000000
827.157227	189.000000
827.191956	203.000000
827.226746	185.000000
827.261536	191.000000
827.296265	186.000000
827.331116	191.000000
827.365906	189.000000
827.400635	191.000000
827.435425	178.000000
827.470215	196.000000
827.504944	192.000000
827.539734	195.000000
827.574463	185.000000
827.609253	194.000000
827.644043	192.000000
827.678772	196.000000
827.713562	187.000000
827.748352	193.000000
827.783081	188.000000
827.817871	191.000000
827.852600	187.000000
827.887329	187.000000
827.922119	181.000000
827.956848	194.000000
827.991638	203.000000
828.026367	194.000000
828.061157	191.000000
828.095886	188.000000
828.130615	208.000000
828.165344	175.000000
828.200073	190.000000
828.234863	183.000000
828.269592	187.000000
828.304321	188.000000
828.339111	190.000000
828.373779	186.000000
828.408569	196.000000
828.443298	193.000000
828.477966	189.000000
828.512756	186.000000
828.547424	181.000000
828.582214	183.000000
828.616943	186.000000
828.651672	183.000000
828.686340	191.000000
828.721130	179.000000
828.755798	189.000000
828.790527	183.000000
828.825256	187.000000
828.859924	188.000000
828.894714	193.000000
828.929443	191.000000
828.964111	187.000000
828.998840	189.000000
829.033569	182.000000
829.068237	185.000000
829.102966	185.000000
829.137634	187.000000
829.172363	186.000000
829.207092	189.000000
829.241821	185.000000
829.276489	177.000000
829.311157	187.000000
829.345825	180.000000
829.380554	194.000000
829.415283	186.000000
829.449951	181.000000
829.484619	194.000000
829.519348	195.000000
829.554016	187.000000
829.588745	189.000000
829.623413	181.000000
829.658081	197.000000
829.692749	180.000000
829.727417	191.000000
829.762146	185.000000
829.796814	179.000000
829.831482	190.000000
829.866150	184.000000
829.900879	181.000000
829.935486	184.000000
829.970154	180.000000
830.004883	197.000000
830.039490	186.000000
830.074219	180.000000
830.108887	184.000000
830.143494	184.000000
830.178223	177.000000
830.212891	181.000000
830.247498	183.000000
830.282166	187.000000
830.316772	192.000000
830.351501	185.000000
830.386169	182.000000
830.420776	183.000000
830.455444	186.000000
830.490112	178.000000
830.524719	174.000000
830.559387	183.000000
830.594055	187.000000
830.628662	181.000000
830.663330	184.000000
830.697998	189.000000
830.732605	185.000000
830.767273	184.000000
830.801941	182.000000
830.836487	191.000000
830.871155	186.000000
830.905762	179.000000
830.940430	177.000000
830.975098	176.000000
831.009644	182.000000
831.044312	190.000000
831.078979	185.000000
831.113525	174.000000
831.148193	188.000000
831.182861	185.000000
831.217407	184.000000
831.252075	202.000000
831.286621	180.000000
831.321289	180.000000
831.355896	188.000000
831.390564	195.000000
831.425110	183.000000
831.459778	189.000000
831.494324	196.000000
831.528931	183.000000
831.563599	187.000000
831.598145	181.000000
831.632751	185.000000
831.667419	185.000000
831.701965	181.000000
831.736572	187.000000
831.771179	177.000000
831.805786	185.000000
831.840393	191.000000
831.874939	176.000000
831.909546	188.000000
831.944153	176.000000
831.978760	182.000000
832.013306	181.000000
832.047913	186.000000
832.082458	199.000000
832.117065	181.000000
832.151672	193.000000
832.186218	181.000000
832.220825	190.000000
832.255432	171.000000
832.289978	178.000000
832.324585	185.000000
832.359192	181.000000
832.393677	178.000000
832.428284	185.000000
832.462830	182.000000
832.497437	182.000000
832.531982	187.000000
832.566589	184.000000
832.601135	183.000000
832.635681	176.000000
832.670227	183.000000
832.704773	193.000000
832.739380	180.000000
832.773926	184.000000
832.808472	178.000000
832.843079	187.000000
832.877563	185.000000
832.912170	183.000000
832.946716	177.000000
832.981201	186.000000
833.015808	185.000000
833.050293	181.000000
833.084839	180.000000
833.119446	186.000000
833.153992	192.000000
833.188477	187.000000
833.223022	186.000000
833.257568	187.000000
833.292114	193.000000
833.326660	195.000000
833.361145	182.000000
833.395691	173.000000
833.430237	186.000000
833.464783	188.000000
833.499329	179.000000
833.533875	177.000000
833.568359	190.000000
833.602905	186.000000
833.637390	189.000000
833.671875	177.000000
833.706421	181.000000
833.740906	177.000000
833.775452	174.000000
833.809998	177.000000
833.844482	190.000000
833.879028	185.000000
833.913513	181.000000
833.947998	183.000000
833.982544	180.000000
834.017090	180.000000
834.051514	175.000000
834.086060	186.000000
834.120544	186.000000
834.155029	180.000000
834.189575	180.000000
834.223999	183.000000
834.258545	184.000000
834.293030	181.000000
834.327515	187.000000
834.362000	176.000000
834.396545	194.000000
834.430969	177.000000
834.465454	187.000000
834.500000	176.000000
834.534424	185.000000
834.568970	175.000000
834.603455	178.000000
834.637878	176.000000
834.672363	183.000000
834.706909	184.000000
834.741333	183.000000
834.775818	177.000000
834.810242	180.000000
834.844727	183.000000
834.879211	183.000000
834.913635	187.000000
834.948181	179.000000
834.982666	188.000000
835.017090	185.000000
835.051575	186.000000
835.086060	183.000000
835.120483	190.000000
835.154907	186.000000
835.189331	184.000000
835.223816	185.000000
835.258301	182.000000
835.292786	178.000000
835.327209	191.000000
835.361694	178.000000
835.396057	183.000000
835.430542	182.000000
835.465027	186.000000
835.499390	183.000000
835.533875	208.000000
835.568359	178.000000
835.602722	180.000000
835.637207	182.000000
835.671692	179.000000
835.706055	196.000000
835.740540	187.000000
835.774902	182.000000
835.809387	186.000000
835.843811	175.000000
835.878235	192.000000
835.912659	178.000000
835.947083	181.000000
835.981506	176.000000
836.015930	181.000000
836.050354	185.000000
836.084778	192.000000
836.119202	188.000000
836.153625	203.000000
836.187988	178.000000
836.222473	180.000000
836.256897	186.000000
836.291260	186.000000
836.325684	186.000000
836.360046	186.000000
836.394470	179.000000
836.428894	187.000000
836.463318	179.000000
836.497681	188.000000
836.532104	189.000000
836.566467	184.000000
836.600891	179.000000
836.635315	191.000000
836.669678	184.000000
836.704102	189.000000
836.738525	189.000000
836.772888	175.000000
836.807251	182.000000
836.841675	185.000000
836.876038	183.000000
836.910461	177.000000
836.944763	189.000000
836.979187	178.000000
837.013611	186.000000
837.047974	177.000000
837.082336	199.000000
837.116699	188.000000
837.151062	183.000000
837.185486	173.000000
837.219849	180.000000
837.254211	188.000000
837.288574	186.000000
837.322937	177.000000
837.357300	170.000000
837.391663	193.000000
837.426086	193.000000
837.460388	179.000000
837.494751	190.000000
837.529114	179.000000
837.563477	190.000000
837.597839	181.000000
837.632141	182.000000
837.666565	177.000000
837.700928	190.000000
837.735229	182.000000
837.769592	183.000000
837.803955	189.000000
837.838257	180.000000
837.872620	177.000000
837.906982	194.000000
837.941284	184.000000
837.975647	186.000000
838.010010	191.000000
838.044312	181.000000
838.078674	177.000000
838.112976	183.000000
838.147339	184.000000
838.181702	182.000000
838.216003	193.000000
838.250366	186.000000
838.284668	185.000000
838.318970	182.000000
838.353333	182.000000
838.387634	182.000000
838.421936	183.000000
838.456299	184.000000
838.490601	194.000000
838.524902	187.000000
838.559265	185.000000
838.593567	188.000000
838.627869	177.000000
838.662170	186.000000
838.696472	181.000000
838.730774	184.000000
838.765137	192.000000
838.799377	170.000000
838.833740	184.000000
838.868042	188.000000
838.902283	177.000000
838.936646	187.000000
838.970947	187.000000
839.005188	188.000000
839.039551	180.000000
839.073792	186.000000
839.108093	181.000000
839.142395	192.000000
839.176697	180.000000
839.210937	183.000000
839.245300	195.000000
839.279541	176.000000
839.313843	183.000000
839.348145	187.000000
839.382385	187.000000
839.416687	185.000000
839.450989	185.000000
839.485229	182.000000
839.519531	179.000000
839.553833	187.000000
839.588013	179.000000
839.622314	185.000000
839.656555	184.000000
839.690857	180.000000
839.725159	176.000000
839.759460	186.000000
839.793640	180.000000
839.827942	180.000000
839.862183	179.000000
839.896423	181.000000
839.930725	192.000000
839.964966	195.000000
839.999207	191.000000
840.033508	193.000000
840.067688	181.000000
840.101990	190.000000
840.136230	187.000000
840.170471	196.000000
840.204712	178.000000
840.238953	183.000000
840.273193	183.000000
840.307434	185.000000
840.341736	181.000000
840.375916	182.000000
840.410217	179.000000
840.444397	191.000000
840.478638	186.000000
840.512878	187.000000
840.547119	181.000000
840.581360	190.000000
840.615601	194.000000
840.649780	196.000000
840.684021	183.000000
840.718262	194.000000
840.752441	186.000000
840.786682	187.000000
840.820862	184.000000
840.855103	197.000000
840.889343	183.000000
840.923584	189.000000
840.957764	189.000000
840.992004	189.000000
841.026184	194.000000
841.060425	184.000000
841.094666	181.000000
841.128845	189.000000
841.163025	185.000000
841.197266	188.000000
841.231445	182.000000
841.265686	186.000000
841.299866	179.000000
841.334045	191.000000
841.368286	183.000000
841.402405	193.000000
841.436646	187.000000
841.470825	184.000000
841.505005	187.000000
841.539185	178.000000
841.573425	178.000000
841.607544	186.000000
841.641785	180.000000
841.675964	180.000000
841.710144	186.000000
841.744324	180.000000
841.778503	185.000000
841.812683	181.000000
841.846863	191.000000
841.881042	191.000000
841.915222	184.000000
841.949402	200.000000
841.983521	176.000000
842.017700	184.000000
842.051880	183.000000
842.086060	189.000000
842.120239	188.000000
842.154419	184.000000
842.188538	191.000000
842.222717	184.000000
842.256897	195.000000
842.291016	179.000000
842.325195	191.000000
842.359375	191.000000
842.393494	191.000000
842.427673	185.000000
842.461853	190.000000
842.495911	194.000000
842.530090	188.000000
842.564209	182.000000
842.598389	190.000000
842.632568	182.000000
842.666626	192.000000
842.700806	183.000000
842.734985	182.000000
842.769043	185.000000
842.803223	186.000000
842.837402	180.000000
842.871460	180.000000
842.905640	190.000000
842.939697	182.000000
842.973877	183.000000
843.007996	185.000000
843.042175	193.000000
843.076233	186.000000
843.110413	186.000000
843.144470	195.000000
843.178589	184.000000
843.212769	185.000000
843.246826	189.000000
843.280945	181.000000
843.315125	185.000000
843.349182	183.000000
843.383301	191.000000
843.417419	197.000000
843.451538	185.000000
843.485657	183.000000
843.519714	185.000000
843.553833	189.000000
843.587952	182.000000
843.622070	183.000000
843.656128	194.000000
843.690247	187.000000
843.724304	185.000000
843.758423	190.000000
843.792542	184.000000
843.826599	189.000000
843.860718	185.000000
843.894836	181.000000
843.928894	187.000000
843.963013	187.000000
843.997070	184.000000
844.031128	176.000000
844.065247	190.000000
844.099304	187.000000
844.133362	191.000000
844.167480	188.000000
844.201599	194.000000
844.235596	190.000000
844.269714	187.000000
844.303711	188.000000
844.337830	179.000000
844.371948	183.000000
844.405945	183.000000
844.440063	177.000000
844.474121	203.000000
844.508118	183.000000
844.542236	188.000000
844.576294	184.000000
844.610352	176.000000
844.644409	180.000000
844.678406	179.000000
844.712524	189.000000
844.746582	190.000000
844.780640	186.000000
844.814636	185.000000
844.848755	195.000000
844.882751	183.000000
844.916809	188.000000
844.950867	189.000000
844.984863	194.000000
845.018921	184.000000
845.052979	183.000000
845.086975	189.000000
845.121033	177.000000
845.155090	186.000000
845.189087	194.000000
845.223145	185.000000
845.257141	186.000000
845.291199	193.000000
845.325256	192.000000
845.359253	187.000000
845.393250	197.000000
845.427307	184.000000
845.461304	189.000000
845.495361	189.000000
845.529358	193.000000
845.563354	187.000000
845.597412	180.000000
845.631409	194.000000
845.665405	191.000000
845.699463	194.000000
845.733459	186.000000
845.767456	192.000000
845.801453	189.000000
845.835449	189.000000
845.869446	193.000000
845.903503	193.000000
845.937439	187.000000
845.971497	191.000000
846.005493	184.000000
846.039429	190.000000
846.073486	195.000000
846.107483	185.000000
846.141418	185.000000
846.175476	187.000000
846.209473	191.000000
846.243408	182.000000
846.277405	189.000000
846.311401	179.000000
846.345337	187.000000
846.379395	188.000000
846.413330	179.000000
846.447327	190.000000
846.481323	181.000000
846.515259	183.000000
846.549255	186.000000
846.583252	186.000000
846.617187	182.000000
846.651184	181.000000
846.685120	186.000000
846.719055	197.000000
846.753052	189.000000
846.786987	189.000000
846.820984	182.000000
846.854980	190.000000
846.888916	184.000000
846.922852	187.000000
846.956848	193.000000
846.990723	182.000000
847.024719	189.000000
847.058716	183.000000
847.092590	192.000000
847.126587	188.000000
847.160522	185.000000
847.194458	188.000000
847.228455	187.000000
847.262390	180.000000
847.296265	185.000000
847.330261	198.000000
847.364136	185.000000
847.398132	187.000000
847.432068	184.000000
847.466003	188.000000
847.499939	185.000000
847.533875	187.000000
847.567749	184.000000
847.601746	187.000000
847.635681	190.000000
847.669556	177.000000
847.703491	191.000000
847.737427	201.000000
847.771301	179.000000
847.805237	191.000000
847.839233	188.000000
847.873108	187.000000
847.907043	181.000000
847.940918	193.000000
847.974854	186.000000
848.008789	196.000000
848.042664	181.000000
848.076538	195.000000
848.110474	184.000000
848.144348	189.000000
848.178284	177.000000
848.212219	188.000000
848.246094	183.000000
848.279968	186.000000
848.313904	187.000000
848.347778	185.000000
848.381653	182.000000
848.415588	184.000000
848.449463	181.000000
848.483337	190.000000
848.517212	191.000000
848.551086	191.000000
848.585022	180.000000
848.618835	195.000000
848.652771	184.000000
848.686646	184.000000
848.720520	193.000000
848.754395	187.000000
848.788330	186.000000
848.822144	191.000000
848.856018	187.000000
848.889954	196.000000
848.923767	186.000000
848.957642	186.000000
848.991577	186.000000
849.025391	188.000000
849.059265	188.000000
849.093079	184.000000
849.126953	180.000000
849.160828	191.000000
849.194641	187.000000
849.228577	186.000000
849.262451	188.000000
849.296265	183.000000
849.330139	186.000000
849.364014	185.000000
849.397827	193.000000
849.431702	186.000000
849.465515	194.000000
849.499329	175.000000
849.533203	187.000000
849.567078	178.000000
849.600891	186.000000
849.634766	183.000000
849.668518	189.000000
849.702393	182.000000
849.736267	178.000000
849.770020	196.000000
849.803894	190.000000
849.837769	183.000000
849.871521	186.000000
849.905396	189.000000
849.939270	181.000000
849.973022	181.000000
850.006897	187.000000
850.040710	186.000000
850.074524	191.000000
850.108337	180.000000
850.142151	191.000000
850.175964	192.000000
850.209778	184.000000
850.243530	174.000000
850.277405	193.000000
850.311218	187.000000
850.344971	187.000000
850.378845	195.000000
850.412659	183.000000
850.446411	186.000000
850.480225	185.000000
850.514038	187.000000
850.547791	188.000000
850.581665	185.000000
850.615417	183.000000
850.649231	191.000000
850.683044	184.000000
850.716858	182.000000
850.750610	187.000000
850.784424	194.000000
850.818176	183.000000
850.851929	187.000000
850.885742	184.000000
850.919495	185.000000
850.953308	191.000000
850.987122	195.000000
851.020874	181.000000
851.054626	180.000000
851.088440	189.000000
851.122192	193.000000
851.156006	185.000000
851.189697	187.000000
851.223511	181.000000
851.257263	192.000000
851.291077	188.000000
851.324829	186.000000
851.358582	181.000000
851.392334	185.000000
851.426086	179.000000
851.459900	196.000000
851.493591	183.000000
851.527344	189.000000
851.561157	184.000000
851.594849	190.000000
851.628662	185.000000
851.662415	194.000000
851.696106	188.000000
851.729858	190.000000
851.763611	178.000000
851.797363	191.000000
851.831116	178.000000
851.864868	189.000000
851.898560	188.000000
851.932312	185.000000
851.966064	189.000000
851.999817	190.000000
852.033569	180.000000
852.067261	189.000000
852.101013	187.000000
852.134766	184.000000
852.168457	177.000000
852.202209	192.000000
852.235901	179.000000
852.269592	191.000000
852.303345	194.000000
852.337036	186.000000
852.370789	181.000000
852.404541	194.000000
852.438171	181.000000
852.471924	185.000000
852.505676	184.000000
852.539307	188.000000
852.573059	184.000000
852.606812	184.000000
852.640442	185.000000
852.674194	187.000000
852.707886	201.000000
852.741577	191.000000
852.775269	185.000000
852.809021	187.000000
852.842651	186.000000
852.876404	191.000000
852.910034	190.000000
852.943787	185.000000
852.977478	188.000000
853.011108	181.000000
853.044861	184.000000
853.078552	193.000000
853.112183	191.000000
853.145874	185.000000
853.179626	179.000000
853.213257	186.000000
853.246948	185.000000
853.280640	192.000000
853.314270	189.000000
853.347961	193.000000
853.381653	190.000000
853.415283	187.000000
853.448975	182.000000
853.482605	185.000000
853.516296	189.000000
853.549988	179.000000
853.583618	188.000000
853.617310	188.000000
853.651001	188.000000
853.684631	180.000000
853.718323	184.000000
853.751953	191.000000
853.785583	178.000000
853.819275	193.000000
853.852966	189.000000
853.886536	178.000000
853.920227	183.000000
853.953918	186.000000
853.987488	190.000000
854.021179	190.000000
854.054749	196.000000
854.088440	195.000000
854.122131	185.000000
854.155701	190.000000
854.189331	179.000000
854.223022	192.000000
854.256592	189.000000
854.290283	185.000000
854.323914	193.000000
854.357483	186.000000
854.391174	191.000000
854.424744	197.000000
854.458374	187.000000
854.492065	200.000000
854.525696	180.000000
854.559265	190.000000
854.592896	196.000000
854.626465	189.000000
854.660095	184.000000
854.693787	189.000000
854.727356	182.000000
854.760986	188.000000
854.794617	186.000000
854.828186	187.000000
854.861816	183.000000
854.895447	188.000000
854.929016	185.000000
854.962585	187.000000
854.996155	191.000000
855.029785	186.000000
855.063416	184.000000
855.097046	189.000000
855.130615	175.000000
855.164185	191.000000
855.197754	184.000000
855.231384	189.000000
855.264954	181.000000
855.298523	190.000000
855.332153	189.000000
855.365723	194.000000
855.399292	180.000000
855.432922	185.000000
855.466492	185.000000
855.500061	183.000000
855.533630	184.000000
855.567200	184.000000
855.600769	187.000000
855.634338	193.000000
855.667969	185.000000
855.701477	186.000000
855.735046	184.000000
855.768616	179.000000
855.802185	187.000000
855.835754	205.000000
855.869324	179.000000
855.902893	187.000000
855.936401	194.000000
855.969971	183.000000
856.003540	181.000000
856.037109	190.000000
856.070618	185.000000
856.104187	183.000000
856.137695	187.000000
856.171265	174.000000
856.204834	191.000000
856.238403	193.000000
856.271912	185.000000
856.305481	184.000000
856.338989	184.000000
856.372559	186.000000
856.406128	189.000000
856.439636	189.000000
856.473145	188.000000
856.506653	192.000000
856.540222	188.000000
856.573792	190.000000
856.607300	192.000000
856.640808	182.000000
856.674377	189.000000
856.707825	213.000000
856.741394	192.000000
856.774902	177.000000
856.808472	179.000000
856.841980	188.000000
856.875488	191.000000
856.908936	178.000000
856.942505	187.000000
856.976013	179.000000
857.009521	181.000000
857.043030	187.000000
857.076477	186.000000
857.110046	189.000000
857.143555	189.000000
857.177063	185.000000
857.210571	187.000000
857.244080	181.000000
857.277527	190.000000
857.311035	181.000000
857.344543	196.000000
857.378052	181.000000
857.411499	195.000000
857.445068	196.000000
857.478516	184.000000
857.512024	183.000000
857.545532	186.000000
857.578979	188.000000
857.612427	189.000000
857.645874	182.000000
857.679382	191.000000
857.712891	192.000000
857.746399	188.000000
857.779846	189.000000
857.813354	190.000000
857.846741	194.000000
857.880249	180.000000
857.913757	186.000000
857.947266	189.000000
857.980652	188.000000
858.014160	183.000000
858.047546	185.000000
858.081055	185.000000
858.114563	195.000000
858.147949	185.000000
858.181458	187.000000
858.214844	185.000000
858.248352	179.000000
858.281799	192.000000
858.315308	197.000000
858.348694	189.000000
858.382141	196.000000
858.415588	188.000000
858.449036	190.000000
858.482483	189.000000
858.515930	183.000000
858.549377	186.000000
858.582825	195.000000
858.616211	184.000000
858.649658	191.000000
858.683105	180.000000
858.716553	188.000000
858.750000	183.000000
858.783386	183.000000
858.816833	176.000000
858.850281	192.000000
858.883728	186.000000
858.917114	186.000000
858.950562	195.000000
858.983948	197.000000
859.017395	196.000000
859.050781	185.000000
859.084167	180.000000
859.117615	184.000000
859.151062	191.000000
859.184448	182.000000
859.217834	183.000000
859.251282	184.000000
859.284668	179.000000
859.318054	177.000000
859.351440	186.000000
859.384888	195.000000
859.418274	187.000000
859.451721	178.000000
859.485046	191.000000
859.518494	192.000000
859.551819	185.000000
859.585266	187.000000
859.618652	193.000000
859.652039	180.000000
859.685425	184.000000
859.718811	181.000000
859.752197	181.000000
859.785583	191.000000
859.819031	195.000000
859.852356	189.000000
859.885742	186.000000
859.919067	187.000000
859.952454	187.000000
859.985901	190.000000
860.019287	189.000000
860.052612	0.000000
860.085999	0.000000
860.119324	0.000000
860.152710	0.000000
860.186096	0.000000
860.219421	0.000000
860.252808	0.000000
860.286133	0.000000
860.319519	0.000000
860.352905	0.000000
860.386292	0.000000
860.419617	0.000000
860.452942	0.000000
860.486267	0.000000
860.519653	0.000000
860.553040	0.000000
860.586365	0.000000
860.619690	0.000000
860.653076	0.000000
860.686340	0.000000
860.719727	0.000000
860.753113	0.000000
860.786377	0.000000
860.819763	0.000000
860.853027	0.000000
860.886414	0.000000
860.919739	0.000000
860.953125	0.000000
860.986389	0.000000
861.019714	0.000000
861.053040	0.000000
861.086365	0.000000
861.119690	0.000000
861.153076	0.000000
861.186340	0.000000
861.219666	0.000000
861.252930	0.000000
861.286316	0.000000
861.319641	0.000000
861.352905	0.000000
861.386230	0.000000
861.419495	0.000000
861.452820	0.000000
861.486145	0.000000
861.519470	0.000000
861.552734	0.000000
861.586060	0.000000
861.619324	0.000000
861.652649	0.000000
861.685974	0.000000
861.719238	0.000000
861.752563	0.000000
861.785828	0.000000
861.819092	0.000000
861.852417	0.000000
861.885742	0.000000
861.918945	0.000000
861.952271	0.000000
861.985535	0.000000
862.018799	0.000000
862.052124	0.000000
862.085449	0.000000
862.118652	0.000000
862.151978	0.000000
862.185181	0.000000
862.218506	0.000000
862.251770	0.000000
862.285034	0.000000
862.318298	0.000000
862.351562	0.000000
862.384827	0.000000
862.418091	0.000000
862.451355	0.000000
862.484619	0.000000
862.517883	0.000000
862.551086	0.000000
862.584351	0.000000
862.617676	0.000000
862.650940	0.000000
862.684143	0.000000
862.717407	0.000000
862.750610	0.000000
862.783875	0.000000
862.817139	0.000000
862.850342	0.000000
862.883606	0.000000
862.916870	0.000000
862.950073	0.000000
862.983337	0.000000
863.016602	0.000000
863.049805	0.000000
863.083069	0.000000
863.116211	0.000000
863.149475	0.000000
863.182739	0.000000
863.216003	0.000000
863.249146	0.000000
863.282410	0.000000
863.315613	0.000000
863.348816	0.000000
863.382080	0.000000
863.415222	0.000000
863.448486	0.000000
863.481689	0.000000
863.514893	0.000000
863.548157	0.000000
863.581360	0.000000
863.614502	0.000000
863.647766	0.000000
863.680908	0.000000
863.714172	0.000000
863.747375	0.000000
863.780579	0.000000
863.813721	0.000000
863.846985	0.000000
863.880127	0.000000
863.913330	0.000000
863.946533	0.000000
863.979675	0.000000
864.012939	0.000000
