Model Number: SPM-001-M   
Serial Number: 10090201
Firmware Version: 004.17.6
Exposure Time: 500000.000000us
Data Taken on: 27-08-2020 09:55:27.472
Wavelength	Amplitude
733.770752	0.000000
733.808716	0.000000
733.846619	0.000000
733.884583	0.000000
733.922546	0.000000
733.960449	0.000000
733.998413	0.000000
734.036377	0.000000
734.074219	0.000000
734.112183	0.000000
734.150085	0.000000
734.188049	0.000000
734.226013	0.000000
734.263916	0.000000
734.301819	0.000000
734.339783	0.000000
734.377686	0.000000
734.415588	0.000000
734.453552	0.000000
734.491455	0.000000
734.529419	0.000000
734.567322	0.000000
734.605225	0.000000
734.643127	0.000000
734.681091	0.000000
734.718994	0.000000
734.756897	0.000000
734.794800	0.000000
734.832703	0.000000
734.870667	0.000000
734.908508	0.000000
734.946472	0.000000
734.984375	0.000000
735.022278	0.000000
735.060181	0.000000
735.098083	0.000000
735.135986	0.000000
735.173889	0.000000
735.211792	0.000000
735.249695	0.000000
735.287598	0.000000
735.325439	0.000000
735.363403	0.000000
735.401306	0.000000
735.439148	0.000000
735.477051	0.000000
735.515015	0.000000
735.552856	0.000000
735.590759	0.000000
735.628662	0.000000
735.666504	0.000000
735.704407	0.000000
735.742310	0.000000
735.780212	0.000000
735.818115	0.000000
735.856018	0.000000
735.893860	0.000000
735.931763	0.000000
735.969604	0.000000
736.007507	0.000000
736.045410	0.000000
736.083252	0.000000
736.121094	0.000000
736.158997	0.000000
736.196838	0.000000
736.234741	0.000000
736.272644	0.000000
736.310486	0.000000
736.348389	0.000000
736.386230	0.000000
736.424072	0.000000
736.461975	0.000000
736.499878	0.000000
736.537720	0.000000
736.575562	0.000000
736.613403	0.000000
736.651306	0.000000
736.689148	0.000000
736.726990	0.000000
736.764893	0.000000
736.802734	0.000000
736.840576	0.000000
736.878418	0.000000
736.916321	0.000000
736.954102	0.000000
736.992004	0.000000
737.029846	0.000000
737.067688	0.000000
737.105530	0.000000
737.143372	0.000000
737.181213	0.000000
737.219116	0.000000
737.256897	0.000000
737.294739	0.000000
737.332642	0.000000
737.370422	0.000000
737.408325	0.000000
737.446167	0.000000
737.483948	0.000000
737.521790	0.000000
737.559692	0.000000
737.597473	0.000000
737.635315	0.000000
737.673157	0.000000
737.710999	0.000000
737.748840	0.000000
737.786621	0.000000
737.824463	0.000000
737.862305	0.000000
737.900085	0.000000
737.937927	0.000000
737.975769	0.000000
738.013550	0.000000
738.051392	0.000000
738.089233	0.000000
738.127014	0.000000
738.164856	0.000000
738.202698	0.000000
738.240479	0.000000
738.278320	0.000000
738.316162	0.000000
738.353943	0.000000
738.391785	0.000000
738.429565	0.000000
738.467407	0.000000
738.505188	0.000000
738.542969	0.000000
738.580811	0.000000
738.618652	0.000000
738.656372	0.000000
738.694214	0.000000
738.732056	0.000000
738.769836	0.000000
738.807617	0.000000
738.845459	0.000000
738.883240	0.000000
738.921021	0.000000
738.958862	0.000000
738.996582	0.000000
739.034424	0.000000
739.072205	0.000000
739.109985	0.000000
739.147827	0.000000
739.185547	0.000000
739.223389	0.000000
739.261169	0.000000
739.298889	0.000000
739.336731	0.000000
739.374512	0.000000
739.412292	0.000000
739.450073	0.000000
739.487854	0.000000
739.525635	0.000000
739.563416	0.000000
739.601135	0.000000
739.638977	0.000000
739.676758	0.000000
739.714478	0.000000
739.752258	0.000000
739.790100	0.000000
739.827820	0.000000
739.865601	0.000000
739.903381	0.000000
739.941101	0.000000
739.978882	191.000000
740.016724	184.000000
740.054443	190.000000
740.092224	179.000000
740.130005	184.000000
740.167725	183.000000
740.205505	185.000000
740.243225	192.000000
740.281006	185.000000
740.318787	183.000000
740.356506	195.000000
740.394287	189.000000
740.432068	184.000000
740.469727	177.000000
740.507507	188.000000
740.545288	183.000000
740.583008	191.000000
740.620789	184.000000
740.658569	180.000000
740.696228	183.000000
740.734009	191.000000
740.771790	171.000000
740.809509	189.000000
740.847229	182.000000
740.884949	186.000000
740.922729	180.000000
740.960449	184.000000
740.998169	182.000000
741.035950	182.000000
741.073669	181.000000
741.111389	187.000000
741.149170	195.000000
741.186890	193.000000
741.224609	184.000000
741.262329	187.000000
741.300110	191.000000
741.337769	182.000000
741.375549	178.000000
741.413208	184.000000
741.450989	180.000000
741.488708	185.000000
741.526367	180.000000
741.564148	194.000000
741.601868	191.000000
741.639526	182.000000
741.677307	186.000000
741.715027	189.000000
741.752686	181.000000
741.790466	196.000000
741.828186	189.000000
741.865845	180.000000
741.903564	181.000000
741.941345	187.000000
741.979004	181.000000
742.016724	191.000000
742.054382	190.000000
742.092102	193.000000
742.129822	182.000000
742.167480	177.000000
742.205200	182.000000
742.242920	188.000000
742.280640	192.000000
742.318359	181.000000
742.356079	186.000000
742.393738	193.000000
742.431396	185.000000
742.469116	190.000000
742.506775	176.000000
742.544495	188.000000
742.582214	194.000000
742.619873	182.000000
742.657593	191.000000
742.695251	185.000000
742.732971	184.000000
742.770630	183.000000
742.808289	186.000000
742.846008	185.000000
742.883728	185.000000
742.921326	182.000000
742.959045	187.000000
742.996765	180.000000
743.034424	184.000000
743.072083	183.000000
743.109802	188.000000
743.147400	177.000000
743.185120	187.000000
743.222839	184.000000
743.260437	194.000000
743.298157	187.000000
743.335754	177.000000
743.373474	182.000000
743.411133	179.000000
743.448792	185.000000
743.486450	185.000000
743.524170	180.000000
743.561768	183.000000
743.599487	194.000000
743.637146	201.000000
743.674744	183.000000
743.712463	185.000000
743.750122	185.000000
743.787720	187.000000
743.825439	184.000000
743.863037	186.000000
743.900696	184.000000
743.938416	214.000000
743.976013	183.000000
744.013672	195.000000
744.051331	193.000000
744.088928	193.000000
744.126587	189.000000
744.164307	189.000000
744.201904	181.000000
744.239563	182.000000
744.277222	194.000000
744.314819	182.000000
744.352478	189.000000
744.390137	189.000000
744.427734	191.000000
744.465393	178.000000
744.502991	179.000000
744.540649	187.000000
744.578308	183.000000
744.615906	181.000000
744.653564	177.000000
744.691223	183.000000
744.728821	183.000000
744.766418	183.000000
744.804077	189.000000
744.841675	184.000000
744.879333	182.000000
744.916992	183.000000
744.954529	183.000000
744.992187	188.000000
745.029785	184.000000
745.067444	180.000000
745.105042	186.000000
745.142639	184.000000
745.180298	198.000000
745.217896	185.000000
745.255493	185.000000
745.293152	190.000000
745.330750	187.000000
745.368347	190.000000
745.405945	189.000000
745.443604	187.000000
745.481140	191.000000
745.518799	185.000000
745.556396	191.000000
745.593994	185.000000
745.631592	186.000000
745.669189	183.000000
745.706787	190.000000
745.744385	183.000000
745.781982	190.000000
745.819580	183.000000
745.857178	187.000000
745.894775	186.000000
745.932373	188.000000
745.969971	191.000000
746.007568	178.000000
746.045166	192.000000
746.082764	195.000000
746.120300	195.000000
746.157898	189.000000
746.195557	186.000000
746.233093	181.000000
746.270691	187.000000
746.308228	188.000000
746.345825	194.000000
746.383423	182.000000
746.420959	185.000000
746.458557	177.000000
746.496155	185.000000
746.533691	186.000000
746.571289	179.000000
746.608887	183.000000
746.646423	188.000000
746.684021	185.000000
746.721619	186.000000
746.759155	186.000000
746.796753	179.000000
746.834351	175.000000
746.871826	184.000000
746.909424	189.000000
746.946960	184.000000
746.984558	183.000000
747.022156	185.000000
747.059631	188.000000
747.097229	188.000000
747.134827	183.000000
747.172363	191.000000
747.209900	189.000000
747.247498	183.000000
747.285034	186.000000
747.322571	196.000000
747.360168	185.000000
747.397644	175.000000
747.435242	189.000000
747.472778	195.000000
747.510315	179.000000
747.547913	182.000000
747.585388	189.000000
747.622925	181.000000
747.660522	177.000000
747.697998	186.000000
747.735596	183.000000
747.773132	181.000000
747.810669	186.000000
747.848206	186.000000
747.885742	183.000000
747.923279	178.000000
747.960815	187.000000
747.998352	189.000000
748.035889	194.000000
748.073425	192.000000
748.110901	186.000000
748.148437	177.000000
748.185974	184.000000
748.223511	194.000000
748.261047	192.000000
748.298584	184.000000
748.336060	189.000000
748.373596	189.000000
748.411133	205.000000
748.448608	181.000000
748.486145	194.000000
748.523682	187.000000
748.561218	190.000000
748.598755	184.000000
748.636292	190.000000
748.673706	184.000000
748.711243	197.000000
748.748718	181.000000
748.786255	190.000000
748.823792	185.000000
748.861267	183.000000
748.898804	188.000000
748.936340	191.000000
748.973816	177.000000
749.011292	195.000000
749.048828	188.000000
749.086304	186.000000
749.123840	196.000000
749.161316	184.000000
749.198792	195.000000
749.236328	196.000000
749.273743	182.000000
749.311279	185.000000
749.348816	189.000000
749.386230	188.000000
749.423767	173.000000
749.461304	191.000000
749.498718	190.000000
749.536255	193.000000
749.573730	199.000000
749.611206	190.000000
749.648682	184.000000
749.686218	186.000000
749.723633	188.000000
749.761169	184.000000
749.798645	184.000000
749.836060	184.000000
749.873596	180.000000
749.911011	188.000000
749.948547	194.000000
749.986023	184.000000
750.023437	183.000000
750.060913	178.000000
750.098450	181.000000
750.135864	188.000000
750.173340	185.000000
750.210815	189.000000
750.248291	184.000000
750.285767	189.000000
750.323242	189.000000
750.360657	191.000000
750.398132	183.000000
750.435608	189.000000
750.473022	182.000000
750.510498	182.000000
750.547974	182.000000
750.585449	186.000000
750.622925	176.000000
750.660339	193.000000
750.697815	190.000000
750.735291	183.000000
750.772644	191.000000
750.810120	187.000000
750.847595	189.000000
750.885010	178.000000
750.922485	192.000000
750.959961	182.000000
750.997375	191.000000
751.034851	190.000000
751.072266	189.000000
751.109680	177.000000
751.147156	196.000000
751.184570	185.000000
751.221985	183.000000
751.259460	179.000000
751.296875	189.000000
751.334290	185.000000
751.371765	192.000000
751.409180	192.000000
751.446594	192.000000
751.484070	190.000000
751.521423	190.000000
751.558899	189.000000
751.596375	194.000000
751.633728	195.000000
751.671204	197.000000
751.708618	182.000000
751.746033	189.000000
751.783447	181.000000
751.820801	181.000000
751.858276	189.000000
751.895691	188.000000
751.933105	185.000000
751.970520	184.000000
752.007935	185.000000
752.045349	191.000000
752.082764	188.000000
752.120178	185.000000
752.157532	186.000000
752.195007	183.000000
752.232422	186.000000
752.269775	195.000000
752.307190	192.000000
752.344543	179.000000
752.382019	188.000000
752.419434	187.000000
752.456787	192.000000
752.494202	188.000000
752.531616	184.000000
752.568970	187.000000
752.606384	190.000000
752.643799	188.000000
752.681152	195.000000
752.718567	187.000000
752.755981	176.000000
752.793335	183.000000
752.830750	176.000000
752.868164	191.000000
752.905518	181.000000
752.942932	191.000000
752.980225	181.000000
753.017639	184.000000
753.055054	190.000000
753.092407	187.000000
753.129822	190.000000
753.167175	192.000000
753.204529	185.000000
753.241943	178.000000
753.279358	183.000000
753.316650	188.000000
753.354065	185.000000
753.391479	189.000000
753.428772	194.000000
753.466187	181.000000
753.503479	179.000000
753.540894	183.000000
753.578308	183.000000
753.615601	179.000000
753.653015	192.000000
753.690369	183.000000
753.727722	186.000000
753.765076	184.000000
753.802490	180.000000
753.839783	177.000000
753.877136	184.000000
753.914551	200.000000
753.951843	180.000000
753.989258	194.000000
754.026611	185.000000
754.063904	193.000000
754.101257	178.000000
754.138611	177.000000
754.175964	191.000000
754.213318	199.000000
754.250610	179.000000
754.288025	186.000000
754.325378	178.000000
754.362671	186.000000
754.400024	183.000000
754.437378	195.000000
754.474670	195.000000
754.512085	184.000000
754.549438	183.000000
754.586731	186.000000
754.624084	182.000000
754.661438	188.000000
754.698730	188.000000
754.736084	186.000000
754.773376	179.000000
754.810730	189.000000
754.848083	183.000000
754.885315	188.000000
754.922668	177.000000
754.960022	179.000000
754.997314	190.000000
755.034668	183.000000
755.072021	184.000000
755.109253	184.000000
755.146606	187.000000
755.183960	187.000000
755.221252	194.000000
755.258545	192.000000
755.295898	189.000000
755.333191	192.000000
755.370544	190.000000
755.407776	186.000000
755.445129	190.000000
755.482422	194.000000
755.519714	187.000000
755.557068	183.000000
755.594360	179.000000
755.631653	191.000000
755.668945	196.000000
755.706299	191.000000
755.743530	203.000000
755.780884	191.000000
755.818176	196.000000
755.855408	194.000000
755.892761	191.000000
755.930054	190.000000
755.967346	193.000000
756.004639	191.000000
756.041870	187.000000
756.079224	194.000000
756.116516	188.000000
756.153748	193.000000
756.191040	201.000000
756.228394	192.000000
756.265625	184.000000
756.302917	189.000000
756.340210	191.000000
756.377441	193.000000
756.414795	201.000000
756.452087	185.000000
756.489319	186.000000
756.526611	193.000000
756.563843	193.000000
756.601135	198.000000
756.638428	199.000000
756.675659	189.000000
756.712952	190.000000
756.750244	194.000000
756.787476	195.000000
756.824768	195.000000
756.862061	189.000000
756.899292	238.000000
756.936584	195.000000
756.973816	200.000000
757.011047	205.000000
757.048340	188.000000
757.085632	194.000000
757.122864	210.000000
757.160156	190.000000
757.197327	196.000000
757.234619	199.000000
757.271912	191.000000
757.309082	200.000000
757.346375	191.000000
757.383667	203.000000
757.420837	202.000000
757.458130	198.000000
757.495422	193.000000
757.532593	200.000000
757.569885	185.000000
757.607117	193.000000
757.644348	201.000000
757.681580	207.000000
757.718811	190.000000
757.756042	196.000000
757.793335	199.000000
757.830505	196.000000
757.867798	193.000000
757.905029	196.000000
757.942200	199.000000
757.979492	194.000000
758.016724	198.000000
758.053894	193.000000
758.091187	218.000000
758.128418	195.000000
758.165588	199.000000
758.202820	207.000000
758.240112	198.000000
758.277283	203.000000
758.314514	202.000000
758.351685	194.000000
758.388916	210.000000
758.426147	207.000000
758.463379	207.000000
758.500610	197.000000
758.537842	203.000000
758.575012	204.000000
758.612244	199.000000
758.649475	210.000000
758.686646	200.000000
758.723877	203.000000
758.761108	207.000000
758.798279	193.000000
758.835510	204.000000
758.872742	203.000000
758.909851	206.000000
758.947083	203.000000
758.984253	205.000000
759.021484	208.000000
759.058716	204.000000
759.095886	205.000000
759.133057	204.000000
759.170288	205.000000
759.207458	204.000000
759.244690	217.000000
759.281860	210.000000
759.319031	207.000000
759.356262	204.000000
759.393433	203.000000
759.430603	207.000000
759.467773	208.000000
759.505005	212.000000
759.542175	217.000000
759.579346	203.000000
759.616516	205.000000
759.653687	207.000000
759.690918	201.000000
759.728027	208.000000
759.765259	208.000000
759.802429	207.000000
759.839539	210.000000
759.876770	214.000000
759.913940	220.000000
759.951111	208.000000
759.988281	209.000000
760.025452	203.000000
760.062561	203.000000
760.099792	209.000000
760.136963	209.000000
760.174072	204.000000
760.211243	200.000000
760.248413	200.000000
760.285583	207.000000
760.322754	215.000000
760.359863	211.000000
760.397034	214.000000
760.434204	211.000000
760.471375	208.000000
760.508545	208.000000
760.545715	212.000000
760.582825	204.000000
760.619995	210.000000
760.657166	206.000000
760.694275	216.000000
760.731445	214.000000
760.768555	214.000000
760.805664	216.000000
760.842834	210.000000
760.879944	217.000000
760.917114	213.000000
760.954285	214.000000
760.991394	212.000000
761.028564	227.000000
761.065674	219.000000
761.102783	216.000000
761.139954	222.000000
761.177124	223.000000
761.214172	227.000000
761.251343	215.000000
761.288452	215.000000
761.325562	220.000000
761.362732	218.000000
761.399841	220.000000
761.436951	222.000000
761.474121	217.000000
761.511169	221.000000
761.548340	233.000000
761.585449	226.000000
761.622559	227.000000
761.659668	227.000000
761.696838	227.000000
761.733887	228.000000
761.771057	224.000000
761.808167	224.000000
761.845276	231.000000
761.882385	237.000000
761.919434	228.000000
761.956604	243.000000
761.993713	227.000000
762.030762	237.000000
762.067871	228.000000
762.105042	233.000000
762.142090	238.000000
762.179199	233.000000
762.216309	234.000000
762.253418	246.000000
762.290527	239.000000
762.327637	238.000000
762.364685	226.000000
762.401794	237.000000
762.438904	239.000000
762.475952	233.000000
762.513062	227.000000
762.550110	231.000000
762.587219	243.000000
762.624329	243.000000
762.661377	238.000000
762.698486	240.000000
762.735596	239.000000
762.772644	239.000000
762.809753	231.000000
762.846863	236.000000
762.883911	241.000000
762.921021	248.000000
762.958069	234.000000
762.995117	247.000000
763.032227	250.000000
763.069336	238.000000
763.106323	241.000000
763.143433	240.000000
763.180481	245.000000
763.217590	245.000000
763.254639	239.000000
763.291687	241.000000
763.328735	249.000000
763.365845	241.000000
763.402893	240.000000
763.439941	243.000000
763.477051	255.000000
763.514038	250.000000
763.551147	247.000000
763.588196	250.000000
763.625244	252.000000
763.662292	256.000000
763.699402	260.000000
763.736389	249.000000
763.773499	259.000000
763.810486	251.000000
763.847534	254.000000
763.884644	253.000000
763.921631	254.000000
763.958679	266.000000
763.995728	254.000000
764.032776	264.000000
764.069824	253.000000
764.106873	257.000000
764.143860	259.000000
764.180969	249.000000
764.218018	262.000000
764.255005	254.000000
764.292053	261.000000
764.329102	270.000000
764.366089	267.000000
764.403137	268.000000
764.440125	261.000000
764.477173	263.000000
764.514221	274.000000
764.551208	266.000000
764.588257	257.000000
764.625305	260.000000
764.662292	275.000000
764.699341	272.000000
764.736389	271.000000
764.773376	281.000000
764.810425	270.000000
764.847473	281.000000
764.884399	281.000000
764.921448	284.000000
764.958435	291.000000
764.995483	277.000000
765.032532	287.000000
765.069458	277.000000
765.106506	274.000000
765.143555	272.000000
765.180481	274.000000
765.217529	287.000000
765.254578	272.000000
765.291504	278.000000
765.328552	281.000000
765.365540	277.000000
765.402527	298.000000
765.439575	278.000000
765.476501	276.000000
765.513550	279.000000
765.550537	280.000000
765.587463	290.000000
765.624512	285.000000
765.661499	268.000000
765.698486	284.000000
765.735474	280.000000
765.772461	278.000000
765.809448	293.000000
765.846436	286.000000
765.883423	300.000000
765.920410	286.000000
765.957397	286.000000
765.994385	297.000000
766.031311	301.000000
766.068359	287.000000
766.105286	295.000000
766.142273	300.000000
766.179260	293.000000
766.216187	284.000000
766.253174	283.000000
766.290161	287.000000
766.327148	302.000000
766.364136	303.000000
766.401123	312.000000
766.438049	296.000000
766.475037	310.000000
766.512024	305.000000
766.548950	325.000000
766.585937	319.000000
766.622864	312.000000
766.659790	317.000000
766.696777	305.000000
766.733704	318.000000
766.770691	312.000000
766.807678	320.000000
766.844604	320.000000
766.881531	324.000000
766.918518	338.000000
766.955444	330.000000
766.992432	327.000000
767.029358	331.000000
767.066284	332.000000
767.103271	334.000000
767.140198	359.000000
767.177124	347.000000
767.214050	337.000000
767.251038	340.000000
767.287964	331.000000
767.324890	337.000000
767.361816	339.000000
767.398743	346.000000
767.435730	333.000000
767.472595	347.000000
767.509583	344.000000
767.546509	337.000000
767.583374	347.000000
767.620361	340.000000
767.657288	347.000000
767.694214	348.000000
767.731140	345.000000
767.768066	348.000000
767.804993	350.000000
767.841919	342.000000
767.878845	347.000000
767.915710	359.000000
767.952698	347.000000
767.989563	360.000000
768.026489	361.000000
768.063416	350.000000
768.100281	351.000000
768.137207	361.000000
768.174133	364.000000
768.211060	371.000000
768.247986	371.000000
768.284912	365.000000
768.321777	358.000000
768.358704	357.000000
768.395630	363.000000
768.432495	360.000000
768.469421	375.000000
768.506348	364.000000
768.543152	373.000000
768.580078	369.000000
768.616943	378.000000
768.653870	384.000000
768.690796	379.000000
768.727661	379.000000
768.764587	382.000000
768.801453	371.000000
768.838318	385.000000
768.875244	389.000000
768.912109	397.000000
768.948975	387.000000
768.985901	390.000000
769.022766	386.000000
769.059631	391.000000
769.096558	391.000000
769.133362	395.000000
769.170288	398.000000
769.207214	393.000000
769.244019	398.000000
769.280945	391.000000
769.317810	406.000000
769.354675	401.000000
769.391541	417.000000
769.428406	414.000000
769.465271	405.000000
769.502136	404.000000
769.539062	405.000000
769.575867	410.000000
769.612732	415.000000
769.649597	425.000000
769.686462	423.000000
769.723328	419.000000
769.760193	407.000000
769.797058	426.000000
769.833923	430.000000
769.870728	421.000000
769.907593	413.000000
769.944519	421.000000
769.981323	425.000000
770.018188	431.000000
770.055054	422.000000
770.091858	430.000000
770.128723	438.000000
770.165588	438.000000
770.202393	427.000000
770.239258	445.000000
770.276062	436.000000
770.312927	441.000000
770.349792	442.000000
770.386597	436.000000
770.423462	444.000000
770.460327	456.000000
770.497131	441.000000
770.533997	451.000000
770.570862	456.000000
770.607605	454.000000
770.644470	448.000000
770.681335	456.000000
770.718140	450.000000
770.754944	448.000000
770.791809	456.000000
770.828613	451.000000
770.865479	452.000000
770.902222	467.000000
770.939087	461.000000
770.975952	460.000000
771.012695	449.000000
771.049561	470.000000
771.086365	464.000000
771.123169	451.000000
771.159973	459.000000
771.196838	459.000000
771.233582	471.000000
771.270447	474.000000
771.307251	473.000000
771.344055	466.000000
771.380859	475.000000
771.417664	471.000000
771.454468	483.000000
771.491272	472.000000
771.528076	483.000000
771.564880	471.000000
771.601685	487.000000
771.638428	475.000000
771.675293	479.000000
771.712097	468.000000
771.748840	491.000000
771.785645	476.000000
771.822449	487.000000
771.859253	484.000000
771.896057	493.000000
771.932861	503.000000
771.969604	502.000000
772.006409	498.000000
772.043213	517.000000
772.079956	514.000000
772.116760	496.000000
772.153503	498.000000
772.190308	532.000000
772.227112	514.000000
772.263855	506.000000
772.300659	517.000000
772.337463	524.000000
772.374207	514.000000
772.411011	514.000000
772.447754	530.000000
772.484497	526.000000
772.521301	521.000000
772.558105	523.000000
772.594849	533.000000
772.631592	554.000000
772.668396	540.000000
772.705139	543.000000
772.741882	539.000000
772.778625	552.000000
772.815430	556.000000
772.852173	558.000000
772.888916	561.000000
772.925720	560.000000
772.962463	574.000000
772.999207	564.000000
773.035950	575.000000
773.072754	583.000000
773.109436	577.000000
773.146240	583.000000
773.182922	562.000000
773.219727	575.000000
773.256470	570.000000
773.293152	567.000000
773.329956	585.000000
773.366699	584.000000
773.403381	573.000000
773.440186	577.000000
773.476929	582.000000
773.513611	579.000000
773.550354	607.000000
773.587158	602.000000
773.623840	588.000000
773.660583	587.000000
773.697327	600.000000
773.734009	597.000000
773.770813	611.000000
773.807495	610.000000
773.844238	606.000000
773.880981	602.000000
773.917664	601.000000
773.954407	617.000000
773.991150	607.000000
774.027832	623.000000
774.064575	609.000000
774.101318	612.000000
774.138000	618.000000
774.174744	614.000000
774.211487	628.000000
774.248108	624.000000
774.284851	631.000000
774.321594	626.000000
774.358276	627.000000
774.395020	643.000000
774.431702	659.000000
774.468384	649.000000
774.505127	646.000000
774.541809	656.000000
774.578491	651.000000
774.615234	650.000000
774.651917	653.000000
774.688599	652.000000
774.725342	669.000000
774.762024	661.000000
774.798706	658.000000
774.835449	652.000000
774.872070	666.000000
774.908813	679.000000
774.945496	686.000000
774.982178	680.000000
775.018860	678.000000
775.055542	672.000000
775.092224	662.000000
775.128967	691.000000
775.165588	695.000000
775.202271	698.000000
775.239014	694.000000
775.275635	684.000000
775.312317	683.000000
775.349060	714.000000
775.385681	712.000000
775.422363	707.000000
775.459045	692.000000
775.495667	695.000000
775.532410	693.000000
775.569092	698.000000
775.605713	719.000000
775.642395	722.000000
775.679016	714.000000
775.715698	712.000000
775.752380	692.000000
775.789001	696.000000
775.825684	724.000000
775.862366	726.000000
775.898987	736.000000
775.935669	719.000000
775.972351	721.000000
776.008972	723.000000
776.045654	738.000000
776.082336	737.000000
776.118958	735.000000
776.155640	736.000000
776.192322	737.000000
776.228882	730.000000
776.265564	739.000000
776.302185	741.000000
776.338867	760.000000
776.375488	751.000000
776.412109	748.000000
776.448792	743.000000
776.485413	747.000000
776.522034	751.000000
776.558716	747.000000
776.595337	749.000000
776.631958	743.000000
776.668579	745.000000
776.705261	747.000000
776.741882	755.000000
776.778503	756.000000
776.815186	752.000000
776.851746	758.000000
776.888367	745.000000
776.924988	762.000000
776.961609	747.000000
776.998291	762.000000
777.034851	749.000000
777.071472	764.000000
777.108154	757.000000
777.144714	763.000000
777.181335	770.000000
777.218018	754.000000
777.254578	781.000000
777.291199	775.000000
777.327759	769.000000
777.364380	781.000000
777.401062	791.000000
777.437622	819.000000
777.474243	811.000000
777.510864	819.000000
777.547424	820.000000
777.584045	825.000000
777.620667	817.000000
777.657227	819.000000
777.693848	819.000000
777.730469	838.000000
777.767029	823.000000
777.803650	831.000000
777.840271	824.000000
777.876831	825.000000
777.913452	831.000000
777.950012	811.000000
777.986633	814.000000
778.023193	814.000000
778.059753	807.000000
778.096375	808.000000
778.132996	817.000000
778.169556	810.000000
778.206116	809.000000
778.242737	806.000000
778.279297	817.000000
778.315857	786.000000
778.352478	771.000000
778.389038	727.000000
778.425598	646.000000
778.462219	552.000000
778.498718	463.000000
778.535339	396.000000
778.571838	348.000000
778.608459	331.000000
778.645020	294.000000
778.681580	283.000000
778.718140	263.000000
778.754761	244.000000
778.791260	256.000000
778.827881	267.000000
778.864441	268.000000
778.900940	277.000000
778.937561	280.000000
778.974121	296.000000
779.010620	344.000000
779.047241	451.000000
779.083801	586.000000
779.120300	704.000000
779.156860	765.000000
779.193359	754.000000
779.229980	709.000000
779.266541	611.000000
779.303040	505.000000
779.339600	421.000000
779.376160	369.000000
779.412659	352.000000
779.449219	316.000000
779.485779	307.000000
779.522278	279.000000
779.558838	261.000000
779.595398	253.000000
779.631897	251.000000
779.668457	260.000000
779.705017	274.000000
779.741516	277.000000
779.778076	279.000000
779.814575	327.000000
779.851074	417.000000
779.887634	553.000000
779.924133	716.000000
779.960693	810.000000
779.997253	874.000000
780.033691	908.000000
780.070251	921.000000
780.106812	968.000000
780.143250	973.000000
780.179810	968.000000
780.216370	977.000000
780.252808	964.000000
780.289368	976.000000
780.325867	998.000000
780.362366	1012.000000
780.398865	1022.000000
780.435364	1029.000000
780.471863	1027.000000
780.508423	1016.000000
780.544861	1017.000000
780.581421	1053.000000
780.617920	1030.000000
780.654419	1037.000000
780.690918	1033.000000
780.727417	1022.000000
780.763916	1030.000000
780.800415	1041.000000
780.836914	1036.000000
780.873352	1057.000000
780.909912	1043.000000
780.946411	1057.000000
780.982849	1061.000000
781.019348	1063.000000
781.055786	1052.000000
781.092346	1054.000000
781.128845	1075.000000
781.165283	1042.000000
781.201782	1047.000000
781.238281	1055.000000
781.274719	1078.000000
781.311218	1084.000000
781.347717	1106.000000
781.384155	1097.000000
781.420654	1100.000000
781.457092	1121.000000
781.493591	1104.000000
781.530090	1110.000000
781.566528	1123.000000
781.602966	1115.000000
781.639465	1113.000000
781.675903	1107.000000
781.712402	1097.000000
781.748901	1103.000000
781.785278	1102.000000
781.821777	1120.000000
781.858276	1102.000000
781.894714	1105.000000
781.931152	1072.000000
781.967651	1082.000000
782.004089	1076.000000
782.040527	1091.000000
782.076965	1098.000000
782.113403	1090.000000
782.149902	1072.000000
782.186340	1094.000000
782.222778	1110.000000
782.259277	1091.000000
782.295654	1091.000000
782.332092	1082.000000
782.368591	1080.000000
782.404968	1103.000000
782.441467	1112.000000
782.477905	1122.000000
782.514282	1131.000000
782.550781	1128.000000
782.587219	1121.000000
782.623596	1133.000000
782.660095	1157.000000
782.696472	1167.000000
782.732910	1155.000000
782.769348	1161.000000
782.805786	1169.000000
782.842224	1183.000000
782.878662	1184.000000
782.915039	1191.000000
782.951477	1201.000000
782.987915	1175.000000
783.024292	1171.000000
783.060730	1177.000000
783.097168	1172.000000
783.133545	1169.000000
783.169983	1158.000000
783.206421	1148.000000
783.242798	1135.000000
783.279236	1127.000000
783.315613	1123.000000
783.352051	1134.000000
783.388489	1123.000000
783.424866	1112.000000
783.461304	1125.000000
783.497681	1135.000000
783.534058	1147.000000
783.570496	1148.000000
783.606934	1143.000000
783.643250	1160.000000
783.679687	1161.000000
783.716125	1145.000000
783.752441	1164.000000
783.788879	1185.000000
783.825317	1193.000000
783.861633	1195.000000
783.898071	1202.000000
783.934448	1209.000000
783.970825	1220.000000
784.007263	1222.000000
784.043579	1252.000000
784.080017	1260.000000
784.116394	1238.000000
784.152710	1230.000000
784.189148	1218.000000
784.225525	1209.000000
784.261902	1217.000000
784.298279	1239.000000
784.334656	1230.000000
784.371033	1195.000000
784.407410	1188.000000
784.443787	1187.000000
784.480164	1179.000000
784.516541	1188.000000
784.552856	1187.000000
784.589233	1183.000000
784.625610	1163.000000
784.661987	1177.000000
784.698364	1189.000000
784.734741	1196.000000
784.771057	1216.000000
784.807434	1241.000000
784.843811	1211.000000
784.880127	1194.000000
784.916504	1223.000000
784.952881	1270.000000
784.989197	1269.000000
785.025574	1300.000000
785.061951	1316.000000
785.098267	1316.000000
785.134644	1300.000000
785.170959	1323.000000
785.207275	1369.000000
785.243652	1386.000000
785.279968	1379.000000
785.316345	1349.000000
785.352722	1309.000000
785.388977	1315.000000
785.425354	1318.000000
785.461731	1309.000000
785.498047	1293.000000
785.534363	1256.000000
785.570679	1229.000000
785.606995	1196.000000
785.643372	1187.000000
785.679687	1204.000000
785.716003	1196.000000
785.752380	1186.000000
785.788635	1154.000000
785.825012	1159.000000
785.861328	1166.000000
785.897644	1183.000000
785.933960	1227.000000
785.970337	1260.000000
786.006592	1281.000000
786.042908	1286.000000
786.079285	1287.000000
786.115540	1320.000000
786.151855	1365.000000
786.188171	1395.000000
786.224487	1435.000000
786.260803	1449.000000
786.297119	1467.000000
786.333435	1478.000000
786.369751	1494.000000
786.406006	1492.000000
786.442322	1495.000000
786.478638	1450.000000
786.514954	1419.000000
786.551270	1357.000000
786.587585	1358.000000
786.623840	1308.000000
786.660156	1292.000000
786.696472	1291.000000
786.732727	1253.000000
786.769043	1231.000000
786.805298	1189.000000
786.841614	1189.000000
786.877930	1223.000000
786.914124	1223.000000
786.950439	1246.000000
786.986755	1242.000000
787.023010	1257.000000
787.059326	1263.000000
787.095642	1275.000000
787.131836	1327.000000
787.168152	1354.000000
787.204468	1375.000000
787.240723	1384.000000
787.276978	1395.000000
787.313293	1429.000000
787.349548	1436.000000
787.385803	1457.000000
787.422058	1467.000000
787.458313	1464.000000
787.494629	1436.000000
787.530823	1431.000000
787.567139	1427.000000
787.603455	1423.000000
787.639648	1401.000000
787.675903	1392.000000
787.712219	1375.000000
787.748413	1355.000000
787.784729	1336.000000
787.820984	1327.000000
787.857178	1345.000000
787.893494	1317.000000
787.929749	1294.000000
787.965942	1299.000000
788.002258	1292.000000
788.038452	1301.000000
788.074707	1312.000000
788.110962	1319.000000
788.147217	1326.000000
788.183472	1334.000000
788.219727	1330.000000
788.255920	1322.000000
788.292175	1321.000000
788.328430	1337.000000
788.364624	1337.000000
788.400879	1343.000000
788.437134	1339.000000
788.473328	1322.000000
788.509583	1325.000000
788.545837	1336.000000
788.582031	1352.000000
788.618286	1372.000000
788.654480	1356.000000
788.690735	1359.000000
788.726990	1378.000000
788.763184	1377.000000
788.799377	1396.000000
788.835632	1400.000000
788.871826	1434.000000
788.908081	1431.000000
788.944336	1401.000000
788.980469	1419.000000
789.016724	1397.000000
789.052979	1415.000000
789.089111	1403.000000
789.125366	1391.000000
789.161621	1377.000000
789.197754	1363.000000
789.234009	1347.000000
789.270142	1332.000000
789.306396	1337.000000
789.342590	1337.000000
789.378784	1339.000000
789.414978	1307.000000
789.451233	1311.000000
789.487366	1301.000000
789.523621	1314.000000
789.559814	1330.000000
789.595947	1334.000000
789.632202	1351.000000
789.668335	1324.000000
789.704529	1343.000000
789.740784	1351.000000
789.776917	1392.000000
789.813110	1395.000000
789.849304	1422.000000
789.885498	1409.000000
789.921692	1412.000000
789.957886	1394.000000
789.994019	1407.000000
790.030212	1412.000000
790.066406	1433.000000
790.102539	1426.000000
790.138733	1437.000000
790.174927	1381.000000
790.211060	1389.000000
790.247253	1377.000000
790.283386	1406.000000
790.319580	1378.000000
790.355774	1379.000000
790.391907	1292.000000
790.428101	1194.000000
790.464294	1047.000000
790.500427	908.000000
790.536621	746.000000
790.572754	618.000000
790.608887	552.000000
790.645081	589.000000
790.681274	742.000000
790.717346	971.000000
790.753540	1182.000000
790.789734	1330.000000
790.825867	1368.000000
790.862000	1359.000000
790.898132	1338.000000
790.934265	1333.000000
790.970459	1312.000000
791.006592	1327.000000
791.042725	1308.000000
791.078918	1282.000000
791.114990	1206.000000
791.151184	1141.000000
791.187317	1060.000000
791.223389	975.000000
791.259583	863.000000
791.295715	756.000000
791.331848	646.000000
791.367981	542.000000
791.404114	458.000000
791.440247	402.000000
791.476379	391.000000
791.512451	387.000000
791.548584	426.000000
791.584778	461.000000
791.620850	532.000000
791.656982	619.000000
791.693115	717.000000
791.729187	841.000000
791.765381	987.000000
791.801514	1107.000000
791.837585	1192.000000
791.873718	1278.000000
791.909851	1341.000000
791.945923	1390.000000
791.982056	1413.000000
792.018188	1449.000000
792.054260	1468.000000
792.090393	1441.000000
792.126465	1448.000000
792.162598	1432.000000
792.198669	1425.000000
792.234741	1457.000000
792.270874	1469.000000
792.307007	1443.000000
792.343079	1437.000000
792.379150	1424.000000
792.415283	1405.000000
792.451355	1425.000000
792.487488	1420.000000
792.523560	1441.000000
792.559631	1429.000000
792.595764	1384.000000
792.631836	1379.000000
792.667908	1384.000000
792.703979	1380.000000
792.740051	1394.000000
792.776184	1402.000000
792.812256	1365.000000
792.848328	1378.000000
792.884399	1383.000000
792.920471	1391.000000
792.956543	1416.000000
792.992615	1418.000000
793.028748	1418.000000
793.064758	1420.000000
793.100830	1414.000000
793.136963	1395.000000
793.172974	1420.000000
793.209045	1428.000000
793.245178	1448.000000
793.281189	1421.000000
793.317261	1401.000000
793.353271	1388.000000
793.389404	1406.000000
793.425476	1418.000000
793.461487	1404.000000
793.497559	1412.000000
793.533630	1412.000000
793.569641	1376.000000
793.605713	1371.000000
793.641785	1354.000000
793.677795	1380.000000
793.713867	1386.000000
793.749878	1397.000000
793.785950	1416.000000
793.822021	1414.000000
793.858032	1366.000000
793.894104	1386.000000
793.930176	1408.000000
793.966187	1413.000000
794.002258	1429.000000
794.038269	1428.000000
794.074280	1387.000000
794.110352	1405.000000
794.146423	1383.000000
794.182373	1399.000000
794.218445	1397.000000
794.254517	1429.000000
794.290466	1403.000000
794.326538	1390.000000
794.362549	1369.000000
794.398560	1369.000000
794.434631	1366.000000
794.470581	1351.000000
794.506653	1342.000000
794.542664	1324.000000
794.578674	1311.000000
794.614685	1309.000000
794.650757	1289.000000
794.686707	1325.000000
794.722778	1335.000000
794.758789	1338.000000
794.794739	1338.000000
794.830811	1341.000000
794.866821	1331.000000
794.902771	1337.000000
794.938843	1329.000000
794.974792	1360.000000
795.010803	1362.000000
795.046814	1351.000000
795.082825	1331.000000
795.118835	1358.000000
795.154846	1338.000000
795.190796	1365.000000
795.226807	1337.000000
795.262817	1340.000000
795.298767	1317.000000
795.334778	1314.000000
795.370850	1279.000000
795.406799	1304.000000
795.442810	1291.000000
795.478821	1295.000000
795.514709	1282.000000
795.550720	1297.000000
795.586670	1243.000000
795.622681	1229.000000
795.658691	1240.000000
795.694641	1253.000000
795.730652	1223.000000
795.766663	1258.000000
795.802551	1236.000000
795.838562	1232.000000
795.874573	1239.000000
795.910522	1232.000000
795.946472	1232.000000
795.982483	1225.000000
796.018433	1220.000000
796.054382	1202.000000
796.090393	1205.000000
796.126282	1213.000000
796.162292	1229.000000
796.198242	1249.000000
796.234192	1268.000000
796.270203	1256.000000
796.306091	1250.000000
796.342041	1262.000000
796.378052	1256.000000
796.413940	1261.000000
796.449951	1274.000000
796.485901	1255.000000
796.521790	1242.000000
796.557800	1242.000000
796.593689	1239.000000
796.629639	1254.000000
796.665649	1269.000000
796.701599	1266.000000
796.737488	1271.000000
796.773437	1255.000000
796.809387	1250.000000
796.845337	1267.000000
796.881287	1278.000000
796.917175	1278.000000
796.953125	1289.000000
796.989075	1290.000000
797.024963	1260.000000
797.060913	1260.000000
797.096863	1263.000000
797.132751	1261.000000
797.168701	1265.000000
797.204590	1245.000000
797.240540	1225.000000
797.276489	1211.000000
797.312439	1193.000000
797.348328	1203.000000
797.384277	1227.000000
797.420166	1232.000000
797.456055	1229.000000
797.492004	1198.000000
797.527893	1197.000000
797.563843	1195.000000
797.599731	1215.000000
797.635620	1212.000000
797.671570	1223.000000
797.707520	1218.000000
797.743347	1196.000000
797.779297	1191.000000
797.815125	1205.000000
797.851074	1249.000000
797.887024	1238.000000
797.922913	1243.000000
797.958801	1236.000000
797.994690	1196.000000
798.030579	1175.000000
798.066467	1199.000000
798.102356	1203.000000
798.138245	1233.000000
798.174133	1208.000000
798.210083	1196.000000
798.245911	1200.000000
798.281799	1172.000000
798.317749	1193.000000
798.353577	1201.000000
798.389465	1195.000000
798.425293	1188.000000
798.461243	1178.000000
798.497131	1174.000000
798.532959	1170.000000
798.568848	1202.000000
798.604736	1203.000000
798.640564	1205.000000
798.676453	1192.000000
798.712402	1172.000000
798.748230	1158.000000
798.784119	1157.000000
798.820007	1167.000000
798.855835	1183.000000
798.891724	1203.000000
798.927551	1185.000000
798.963379	1172.000000
798.999268	1169.000000
799.035095	1156.000000
799.070984	1167.000000
799.106873	1165.000000
799.142700	1189.000000
799.178528	1157.000000
799.214417	1161.000000
799.250244	1162.000000
799.286133	1168.000000
799.321960	1173.000000
799.357788	1169.000000
799.393677	1163.000000
799.429504	1158.000000
799.465332	1155.000000
799.501221	1146.000000
799.537048	1160.000000
799.572876	1161.000000
799.608704	1165.000000
799.644531	1161.000000
799.680359	1148.000000
799.716248	1147.000000
799.752014	1164.000000
799.787903	1180.000000
799.823730	1163.000000
799.859558	1164.000000
799.895386	1149.000000
799.931213	1111.000000
799.967041	1112.000000
800.002869	1096.000000
800.038696	1132.000000
800.074463	1113.000000
800.110352	1127.000000
800.146179	1090.000000
800.181946	1102.000000
800.217773	1114.000000
800.253540	1106.000000
800.289429	1121.000000
800.325256	1112.000000
800.361023	1089.000000
800.396851	1075.000000
800.432678	1066.000000
800.468445	1082.000000
800.504272	1083.000000
800.540100	1083.000000
800.575867	1078.000000
800.611694	1081.000000
800.647461	1060.000000
800.683289	1054.000000
800.719116	1049.000000
800.754883	1063.000000
800.790649	1046.000000
800.826477	1034.000000
800.862244	1049.000000
800.898071	1023.000000
800.933838	1018.000000
800.969604	1018.000000
801.005432	1033.000000
801.041199	1045.000000
801.076965	1033.000000
801.112793	1008.000000
801.148560	993.000000
801.184326	1001.000000
801.220154	990.000000
801.255859	986.000000
801.291687	993.000000
801.327454	988.000000
801.363281	993.000000
801.398987	973.000000
801.434814	952.000000
801.470520	960.000000
801.506287	965.000000
801.542114	961.000000
801.577820	959.000000
801.613647	945.000000
801.649414	951.000000
801.685120	949.000000
801.720886	962.000000
801.756714	948.000000
801.792419	958.000000
801.828186	948.000000
801.863892	946.000000
801.899719	937.000000
801.935486	939.000000
801.971252	939.000000
802.006958	937.000000
802.042725	947.000000
802.078430	926.000000
802.114197	924.000000
802.149963	945.000000
802.185669	929.000000
802.221436	933.000000
802.257202	934.000000
802.292908	925.000000
802.328674	923.000000
802.364441	927.000000
802.400146	905.000000
802.435913	932.000000
802.471558	921.000000
802.507324	915.000000
802.543091	909.000000
802.578796	926.000000
802.614502	916.000000
802.650269	930.000000
802.685974	916.000000
802.721741	913.000000
802.757446	916.000000
802.793152	907.000000
802.828918	904.000000
802.864624	903.000000
802.900330	919.000000
802.936035	914.000000
802.971802	921.000000
803.007446	902.000000
803.043213	899.000000
803.078857	895.000000
803.114624	873.000000
803.150330	880.000000
803.185974	878.000000
803.221741	876.000000
803.257446	870.000000
803.293152	873.000000
803.328857	867.000000
803.364563	858.000000
803.400208	867.000000
803.435974	865.000000
803.471680	859.000000
803.507324	852.000000
803.543030	846.000000
803.578735	839.000000
803.614441	832.000000
803.650146	845.000000
803.685791	831.000000
803.721497	836.000000
803.757202	825.000000
803.792847	825.000000
803.828552	830.000000
803.864258	823.000000
803.899902	822.000000
803.935608	822.000000
803.971313	817.000000
804.006958	797.000000
804.042664	799.000000
804.078308	812.000000
804.113953	791.000000
804.149658	808.000000
804.185364	789.000000
804.221008	806.000000
804.256714	788.000000
804.292297	784.000000
804.328003	778.000000
804.363708	774.000000
804.399292	774.000000
804.434998	765.000000
804.470703	760.000000
804.506287	781.000000
804.541992	765.000000
804.577637	772.000000
804.613281	770.000000
804.648926	760.000000
804.684570	774.000000
804.720215	756.000000
804.755920	738.000000
804.791565	746.000000
804.827209	741.000000
804.862854	750.000000
804.898437	747.000000
804.934143	753.000000
804.969788	750.000000
805.005371	755.000000
805.041077	738.000000
805.076721	744.000000
805.112305	747.000000
805.147949	751.000000
805.183655	728.000000
805.219238	731.000000
805.254883	729.000000
805.290466	748.000000
805.326111	742.000000
805.361755	736.000000
805.397400	741.000000
805.432983	739.000000
805.468628	726.000000
805.504211	739.000000
805.539856	731.000000
805.575500	735.000000
805.611084	731.000000
805.646729	734.000000
805.682373	730.000000
805.717957	728.000000
805.753601	730.000000
805.789246	710.000000
805.824768	729.000000
805.860413	744.000000
805.895996	715.000000
805.931641	725.000000
805.967224	717.000000
806.002869	700.000000
806.038452	715.000000
806.074036	736.000000
806.109619	706.000000
806.145264	703.000000
806.180847	707.000000
806.216431	702.000000
806.252014	696.000000
806.287659	700.000000
806.323181	703.000000
806.358826	697.000000
806.394409	687.000000
806.429993	682.000000
806.465576	691.000000
806.501160	673.000000
806.536743	665.000000
806.572327	682.000000
806.607910	688.000000
806.643494	676.000000
806.679077	674.000000
806.714661	663.000000
806.750244	666.000000
806.785828	646.000000
806.821350	654.000000
806.856934	652.000000
806.892517	660.000000
806.928101	645.000000
806.963684	655.000000
806.999268	657.000000
807.034790	638.000000
807.070374	639.000000
807.105896	635.000000
807.141479	642.000000
807.177063	642.000000
807.212585	626.000000
807.248169	623.000000
807.283752	627.000000
807.319275	626.000000
807.354858	631.000000
807.390381	624.000000
807.425903	620.000000
807.461487	620.000000
807.497070	616.000000
807.532593	619.000000
807.568115	605.000000
807.603699	613.000000
807.639221	600.000000
807.674744	603.000000
807.710266	603.000000
807.745850	614.000000
807.781372	603.000000
807.816895	599.000000
807.852417	593.000000
807.888000	608.000000
807.923523	605.000000
807.959045	598.000000
807.994629	583.000000
808.030090	578.000000
808.065613	584.000000
808.101135	601.000000
808.136658	592.000000
808.172241	588.000000
808.207764	592.000000
808.243225	587.000000
808.278809	578.000000
808.314270	595.000000
808.349792	579.000000
808.385315	572.000000
808.420837	580.000000
808.456360	565.000000
808.491882	571.000000
808.527344	570.000000
808.562866	582.000000
808.598389	563.000000
808.633850	565.000000
808.669434	557.000000
808.704895	567.000000
808.740417	570.000000
808.775940	559.000000
808.811462	553.000000
808.846924	546.000000
808.882385	546.000000
808.917847	545.000000
808.953369	542.000000
808.988892	532.000000
809.024353	543.000000
809.059875	546.000000
809.095398	538.000000
809.130798	534.000000
809.166321	529.000000
809.201843	529.000000
809.237305	525.000000
809.272766	534.000000
809.308228	518.000000
809.343750	521.000000
809.379211	522.000000
809.414734	522.000000
809.450134	533.000000
809.485657	511.000000
809.521118	524.000000
809.556580	513.000000
809.592102	518.000000
809.627502	512.000000
809.663025	496.000000
809.698486	510.000000
809.733887	505.000000
809.769409	491.000000
809.804871	497.000000
809.840271	491.000000
809.875793	494.000000
809.911194	494.000000
809.946655	486.000000
809.982178	484.000000
810.017639	497.000000
810.053040	483.000000
810.088501	486.000000
810.123901	486.000000
810.159424	485.000000
810.194885	479.000000
810.230286	490.000000
810.265747	479.000000
810.301208	476.000000
810.336609	475.000000
810.372070	462.000000
810.407532	464.000000
810.442932	469.000000
810.478394	469.000000
810.513794	468.000000
810.549255	467.000000
810.584717	472.000000
810.620117	457.000000
810.655518	461.000000
810.690979	457.000000
810.726379	471.000000
810.761841	457.000000
810.797302	459.000000
810.832642	450.000000
810.868103	460.000000
810.903564	449.000000
810.938904	456.000000
810.974365	447.000000
811.009827	459.000000
811.045166	445.000000
811.080627	442.000000
811.115967	440.000000
811.151428	448.000000
811.186829	435.000000
811.222229	441.000000
811.257629	430.000000
811.293091	438.000000
811.328430	442.000000
811.363892	440.000000
811.399292	435.000000
811.434631	435.000000
811.470093	434.000000
811.505493	431.000000
811.540833	434.000000
811.576294	440.000000
811.611694	424.000000
811.647034	431.000000
811.682434	428.000000
811.717773	430.000000
811.753235	434.000000
811.788635	433.000000
811.823975	430.000000
811.859375	438.000000
811.894775	426.000000
811.930115	422.000000
811.965515	424.000000
812.000916	425.000000
812.036255	416.000000
812.071655	424.000000
812.106995	414.000000
812.142395	410.000000
812.177795	427.000000
812.213196	420.000000
812.248474	418.000000
812.283875	410.000000
812.319214	414.000000
812.354614	411.000000
812.390015	410.000000
812.425293	411.000000
812.460693	418.000000
812.496094	410.000000
812.531433	403.000000
812.566772	405.000000
812.602173	399.000000
812.637451	401.000000
812.672852	403.000000
812.708191	398.000000
812.743530	398.000000
812.778931	394.000000
812.814270	388.000000
812.849609	393.000000
812.884949	386.000000
812.920227	377.000000
812.955627	399.000000
812.990967	390.000000
813.026306	385.000000
813.061646	366.000000
813.096985	361.000000
813.132324	367.000000
813.167664	373.000000
813.203003	370.000000
813.238281	365.000000
813.273682	364.000000
813.308960	357.000000
813.344299	367.000000
813.379639	373.000000
813.414978	369.000000
813.450256	367.000000
813.485596	365.000000
813.520874	360.000000
813.556213	361.000000
813.591614	367.000000
813.626831	353.000000
813.662170	356.000000
813.697510	368.000000
813.732788	354.000000
813.768127	358.000000
813.803467	360.000000
813.838745	353.000000
813.874084	359.000000
813.909363	351.000000
813.944641	358.000000
813.979980	349.000000
814.015320	356.000000
814.050598	350.000000
814.085876	348.000000
814.121155	349.000000
814.156494	343.000000
814.191772	347.000000
814.227051	343.000000
814.262390	344.000000
814.297668	343.000000
814.332947	339.000000
814.368225	334.000000
814.403564	337.000000
814.438782	331.000000
814.474121	340.000000
814.509338	332.000000
814.544617	341.000000
814.579956	327.000000
814.615173	344.000000
814.650513	332.000000
814.685791	326.000000
814.721008	336.000000
814.756348	334.000000
814.791626	329.000000
814.826843	334.000000
814.862122	328.000000
814.897400	325.000000
814.932678	328.000000
814.967957	330.000000
815.003235	329.000000
815.038452	325.000000
815.073730	319.000000
815.108948	322.000000
815.144226	322.000000
815.179504	323.000000
815.214722	313.000000
815.250000	319.000000
815.285278	319.000000
815.320496	315.000000
815.355774	314.000000
815.391052	319.000000
815.426270	316.000000
815.461487	317.000000
815.496765	309.000000
815.531982	309.000000
815.567261	313.000000
815.602539	314.000000
815.637695	309.000000
815.672974	310.000000
815.708191	302.000000
815.743408	309.000000
815.778687	305.000000
815.813904	318.000000
815.849121	296.000000
815.884399	300.000000
815.919556	300.000000
815.954834	305.000000
815.990051	303.000000
816.025269	307.000000
816.060486	300.000000
816.095703	298.000000
816.130920	298.000000
816.166199	301.000000
816.201416	297.000000
816.236572	294.000000
816.271851	292.000000
816.307007	291.000000
816.342224	284.000000
816.377441	293.000000
816.412659	279.000000
816.447876	295.000000
816.483093	292.000000
816.518250	290.000000
816.553467	285.000000
816.588745	285.000000
816.623901	283.000000
816.659119	268.000000
816.694275	285.000000
816.729492	280.000000
816.764709	312.000000
816.799927	275.000000
816.835083	276.000000
816.870300	274.000000
816.905457	280.000000
816.940674	283.000000
816.975830	274.000000
817.010986	274.000000
817.046204	272.000000
817.081421	272.000000
817.116577	269.000000
817.151733	280.000000
817.186951	276.000000
817.222107	277.000000
817.257324	278.000000
817.292419	277.000000
817.327637	275.000000
817.362854	272.000000
817.398010	266.000000
817.433167	270.000000
817.468323	274.000000
817.503479	271.000000
817.538635	278.000000
817.573853	275.000000
817.608948	272.000000
817.644165	271.000000
817.679321	262.000000
817.714478	265.000000
817.749634	276.000000
817.784790	281.000000
817.819946	274.000000
817.855103	253.000000
817.890198	257.000000
817.925415	257.000000
817.960571	261.000000
817.995667	265.000000
818.030823	263.000000
818.066040	260.000000
818.101135	263.000000
818.136292	261.000000
818.171448	258.000000
818.206543	264.000000
818.241699	265.000000
818.276855	263.000000
818.311951	258.000000
818.347107	255.000000
818.382263	260.000000
818.417358	264.000000
818.452515	258.000000
818.487610	266.000000
818.522766	253.000000
818.557922	266.000000
818.593018	258.000000
818.628113	257.000000
818.663269	248.000000
818.698364	257.000000
818.733521	252.000000
818.768677	256.000000
818.803711	249.000000
818.838867	251.000000
818.874023	253.000000
818.909058	251.000000
818.944214	253.000000
818.979370	255.000000
819.014404	250.000000
819.049561	244.000000
819.084595	249.000000
819.119751	246.000000
819.154846	250.000000
819.189941	249.000000
819.225037	245.000000
819.260193	240.000000
819.295227	239.000000
819.330322	240.000000
819.365479	239.000000
819.400513	269.000000
819.435608	236.000000
819.470764	231.000000
819.505798	233.000000
819.540894	237.000000
819.575989	238.000000
819.611084	244.000000
819.646179	247.000000
819.681213	240.000000
819.716309	237.000000
819.751404	241.000000
819.786438	245.000000
819.821533	230.000000
819.856628	240.000000
819.891663	235.000000
819.926758	242.000000
819.961853	236.000000
819.996887	237.000000
820.031982	236.000000
820.067017	231.000000
820.102112	263.000000
820.137207	234.000000
820.172302	249.000000
820.207275	230.000000
820.242371	226.000000
820.277405	233.000000
820.312500	233.000000
820.347534	231.000000
820.382568	235.000000
820.417664	228.000000
820.452759	226.000000
820.487732	229.000000
820.522827	225.000000
820.557861	225.000000
820.592896	229.000000
820.627930	234.000000
820.662964	224.000000
820.698059	235.000000
820.733093	224.000000
820.768127	231.000000
820.803162	226.000000
820.838196	228.000000
820.873230	227.000000
820.908264	230.000000
820.943298	224.000000
820.978333	235.000000
821.013367	227.000000
821.048401	232.000000
821.083435	232.000000
821.118469	218.000000
821.153503	233.000000
821.188477	229.000000
821.223511	219.000000
821.258484	228.000000
821.293579	224.000000
821.328613	218.000000
821.363647	222.000000
821.398621	211.000000
821.433655	221.000000
821.468628	231.000000
821.503662	218.000000
821.538696	221.000000
821.573669	210.000000
821.608704	219.000000
821.643677	219.000000
821.678650	222.000000
821.713684	227.000000
821.748718	212.000000
821.783691	223.000000
821.818726	211.000000
821.853638	224.000000
821.888672	213.000000
821.923706	217.000000
821.958618	214.000000
821.993652	216.000000
822.028687	219.000000
822.063599	226.000000
822.098633	215.000000
822.133667	212.000000
822.168579	214.000000
822.203613	223.000000
822.238586	208.000000
822.273560	219.000000
822.308533	209.000000
822.343567	210.000000
822.378479	211.000000
822.413452	215.000000
822.448425	209.000000
822.483398	220.000000
822.518372	219.000000
822.553345	207.000000
822.588318	223.000000
822.623291	215.000000
822.658203	214.000000
822.693237	213.000000
822.728210	208.000000
822.763123	209.000000
822.798096	204.000000
822.833069	210.000000
822.867981	208.000000
822.902954	208.000000
822.937927	211.000000
822.972900	219.000000
823.007874	207.000000
823.042725	214.000000
823.077698	221.000000
823.112671	205.000000
823.147583	208.000000
823.182556	210.000000
823.217529	211.000000
823.252441	205.000000
823.287415	220.000000
823.322388	209.000000
823.357239	208.000000
823.392212	213.000000
823.427185	212.000000
823.462097	200.000000
823.497009	207.000000
823.531982	200.000000
823.566895	206.000000
823.601807	194.000000
823.636719	211.000000
823.671631	207.000000
823.706604	205.000000
823.741455	204.000000
823.776428	199.000000
823.811340	204.000000
823.846252	210.000000
823.881165	209.000000
823.916138	207.000000
823.950989	208.000000
823.985901	200.000000
824.020813	205.000000
824.055725	202.000000
824.090637	195.000000
824.125610	198.000000
824.160461	201.000000
824.195374	209.000000
824.230225	201.000000
824.265198	197.000000
824.300110	201.000000
824.334961	210.000000
824.369873	191.000000
824.404785	209.000000
824.439636	206.000000
824.474548	195.000000
824.509460	193.000000
824.544312	207.000000
824.579224	205.000000
824.614075	207.000000
824.648987	195.000000
824.683899	203.000000
824.718811	197.000000
824.753662	206.000000
824.788574	207.000000
824.823364	200.000000
824.858276	199.000000
824.893188	204.000000
824.928040	205.000000
824.962952	201.000000
824.997803	205.000000
825.032654	201.000000
825.067566	204.000000
825.102417	199.000000
825.137268	199.000000
825.172119	193.000000
825.206970	195.000000
825.241882	195.000000
825.276733	197.000000
825.311646	193.000000
825.346436	197.000000
825.381348	189.000000
825.416138	197.000000
825.450989	193.000000
825.485901	189.000000
825.520691	190.000000
825.555542	191.000000
825.590454	190.000000
825.625244	189.000000
825.660095	200.000000
825.695007	196.000000
825.729797	192.000000
825.764648	192.000000
825.799438	191.000000
825.834290	198.000000
825.869202	185.000000
825.903992	195.000000
825.938843	195.000000
825.973694	192.000000
826.008484	204.000000
826.043335	192.000000
826.078186	188.000000
826.112976	201.000000
826.147827	200.000000
826.182678	205.000000
826.217468	187.000000
826.252319	203.000000
826.287109	190.000000
826.321899	202.000000
826.356750	193.000000
826.391541	190.000000
826.426392	197.000000
826.461182	195.000000
826.495972	189.000000
826.530823	185.000000
826.565613	193.000000
826.600403	190.000000
826.635254	196.000000
826.670044	184.000000
826.704834	187.000000
826.739685	184.000000
826.774475	199.000000
826.809265	189.000000
826.844055	187.000000
826.878906	197.000000
826.913635	194.000000
826.948425	192.000000
826.983215	191.000000
827.018005	194.000000
827.052856	193.000000
827.087585	188.000000
827.122375	184.000000
827.157227	188.000000
827.191956	200.000000
827.226746	183.000000
827.261536	193.000000
827.296265	182.000000
827.331116	187.000000
827.365906	188.000000
827.400635	187.000000
827.435425	178.000000
827.470215	194.000000
827.504944	187.000000
827.539734	196.000000
827.574463	186.000000
827.609253	196.000000
827.644043	190.000000
827.678772	195.000000
827.713562	191.000000
827.748352	187.000000
827.783081	183.000000
827.817871	194.000000
827.852600	188.000000
827.887329	187.000000
827.922119	181.000000
827.956848	195.000000
827.991638	198.000000
828.026367	191.000000
828.061157	193.000000
828.095886	187.000000
828.130615	198.000000
828.165344	180.000000
828.200073	184.000000
828.234863	181.000000
828.269592	187.000000
828.304321	195.000000
828.339111	188.000000
828.373779	181.000000
828.408569	194.000000
828.443298	190.000000
828.477966	187.000000
828.512756	184.000000
828.547424	187.000000
828.582214	185.000000
828.616943	183.000000
828.651672	180.000000
828.686340	193.000000
828.721130	183.000000
828.755798	190.000000
828.790527	184.000000
828.825256	188.000000
828.859924	188.000000
828.894714	187.000000
828.929443	193.000000
828.964111	186.000000
828.998840	186.000000
829.033569	184.000000
829.068237	181.000000
829.102966	184.000000
829.137634	183.000000
829.172363	190.000000
829.207092	184.000000
829.241821	180.000000
829.276489	177.000000
829.311157	186.000000
829.345825	183.000000
829.380554	191.000000
829.415283	182.000000
829.449951	179.000000
829.484619	189.000000
829.519348	195.000000
829.554016	180.000000
829.588745	186.000000
829.623413	175.000000
829.658081	193.000000
829.692749	183.000000
829.727417	190.000000
829.762146	186.000000
829.796814	179.000000
829.831482	184.000000
829.866150	183.000000
829.900879	185.000000
829.935486	189.000000
829.970154	185.000000
830.004883	196.000000
830.039490	189.000000
830.074219	179.000000
830.108887	189.000000
830.143494	182.000000
830.178223	178.000000
830.212891	184.000000
830.247498	183.000000
830.282166	193.000000
830.316772	198.000000
830.351501	181.000000
830.386169	187.000000
830.420776	181.000000
830.455444	186.000000
830.490112	181.000000
830.524719	180.000000
830.559387	185.000000
830.594055	185.000000
830.628662	185.000000
830.663330	188.000000
830.697998	189.000000
830.732605	183.000000
830.767273	185.000000
830.801941	186.000000
830.836487	192.000000
830.871155	185.000000
830.905762	182.000000
830.940430	180.000000
830.975098	180.000000
831.009644	186.000000
831.044312	188.000000
831.078979	189.000000
831.113525	173.000000
831.148193	184.000000
831.182861	183.000000
831.217407	192.000000
831.252075	201.000000
831.286621	183.000000
831.321289	177.000000
831.355896	185.000000
831.390564	189.000000
831.425110	184.000000
831.459778	187.000000
831.494324	200.000000
831.528931	184.000000
831.563599	192.000000
831.598145	178.000000
831.632751	184.000000
831.667419	181.000000
831.701965	185.000000
831.736572	182.000000
831.771179	177.000000
831.805786	185.000000
831.840393	190.000000
831.874939	178.000000
831.909546	187.000000
831.944153	175.000000
831.978760	183.000000
832.013306	181.000000
832.047913	192.000000
832.082458	197.000000
832.117065	180.000000
832.151672	193.000000
832.186218	185.000000
832.220825	186.000000
832.255432	176.000000
832.289978	181.000000
832.324585	186.000000
832.359192	187.000000
832.393677	181.000000
832.428284	183.000000
832.462830	179.000000
832.497437	184.000000
832.531982	190.000000
832.566589	184.000000
832.601135	185.000000
832.635681	177.000000
832.670227	184.000000
832.704773	191.000000
832.739380	181.000000
832.773926	184.000000
832.808472	179.000000
832.843079	183.000000
832.877563	182.000000
832.912170	181.000000
832.946716	177.000000
832.981201	186.000000
833.015808	186.000000
833.050293	187.000000
833.084839	175.000000
833.119446	181.000000
833.153992	186.000000
833.188477	184.000000
833.223022	181.000000
833.257568	188.000000
833.292114	185.000000
833.326660	198.000000
833.361145	182.000000
833.395691	175.000000
833.430237	186.000000
833.464783	185.000000
833.499329	178.000000
833.533875	179.000000
833.568359	190.000000
833.602905	189.000000
833.637390	193.000000
833.671875	185.000000
833.706421	181.000000
833.740906	184.000000
833.775452	171.000000
833.809998	179.000000
833.844482	195.000000
833.879028	182.000000
833.913513	181.000000
833.947998	185.000000
833.982544	185.000000
834.017090	182.000000
834.051514	181.000000
834.086060	187.000000
834.120544	187.000000
834.155029	184.000000
834.189575	183.000000
834.223999	185.000000
834.258545	186.000000
834.293030	186.000000
834.327515	184.000000
834.362000	180.000000
834.396545	191.000000
834.430969	182.000000
834.465454	188.000000
834.500000	178.000000
834.534424	187.000000
834.568970	177.000000
834.603455	178.000000
834.637878	173.000000
834.672363	185.000000
834.706909	181.000000
834.741333	178.000000
834.775818	175.000000
834.810242	180.000000
834.844727	178.000000
834.879211	181.000000
834.913635	183.000000
834.948181	187.000000
834.982666	185.000000
835.017090	182.000000
835.051575	185.000000
835.086060	184.000000
835.120483	187.000000
835.154907	187.000000
835.189331	190.000000
835.223816	187.000000
835.258301	174.000000
835.292786	180.000000
835.327209	193.000000
835.361694	179.000000
835.396057	181.000000
835.430542	191.000000
835.465027	181.000000
835.499390	179.000000
835.533875	205.000000
835.568359	185.000000
835.602722	178.000000
835.637207	181.000000
835.671692	180.000000
835.706055	199.000000
835.740540	190.000000
835.774902	187.000000
835.809387	185.000000
835.843811	174.000000
835.878235	191.000000
835.912659	175.000000
835.947083	181.000000
835.981506	182.000000
836.015930	180.000000
836.050354	187.000000
836.084778	193.000000
836.119202	185.000000
836.153625	201.000000
836.187988	175.000000
836.222473	180.000000
836.256897	181.000000
836.291260	183.000000
836.325684	183.000000
836.360046	185.000000
836.394470	177.000000
836.428894	188.000000
836.463318	178.000000
836.497681	189.000000
836.532104	191.000000
836.566467	191.000000
836.600891	181.000000
836.635315	193.000000
836.669678	188.000000
836.704102	187.000000
836.738525	183.000000
836.772888	182.000000
836.807251	181.000000
836.841675	186.000000
836.876038	179.000000
836.910461	181.000000
836.944763	191.000000
836.979187	182.000000
837.013611	189.000000
837.047974	176.000000
837.082336	197.000000
837.116699	185.000000
837.151062	181.000000
837.185486	185.000000
837.219849	183.000000
837.254211	189.000000
837.288574	185.000000
837.322937	182.000000
837.357300	177.000000
837.391663	197.000000
837.426086	188.000000
837.460388	182.000000
837.494751	187.000000
837.529114	177.000000
837.563477	195.000000
837.597839	187.000000
837.632141	185.000000
837.666565	183.000000
837.700928	189.000000
837.735229	185.000000
837.769592	190.000000
837.803955	186.000000
837.838257	181.000000
837.872620	182.000000
837.906982	190.000000
837.941284	182.000000
837.975647	190.000000
838.010010	185.000000
838.044312	181.000000
838.078674	184.000000
838.112976	187.000000
838.147339	184.000000
838.181702	185.000000
838.216003	189.000000
838.250366	186.000000
838.284668	187.000000
838.318970	181.000000
838.353333	185.000000
838.387634	187.000000
838.421936	184.000000
838.456299	186.000000
838.490601	191.000000
838.524902	189.000000
838.559265	186.000000
838.593567	196.000000
838.627869	180.000000
838.662170	185.000000
838.696472	182.000000
838.730774	176.000000
838.765137	184.000000
838.799377	175.000000
838.833740	190.000000
838.868042	190.000000
838.902283	180.000000
838.936646	191.000000
838.970947	185.000000
839.005188	193.000000
839.039551	182.000000
839.073792	188.000000
839.108093	186.000000
839.142395	197.000000
839.176697	181.000000
839.210937	185.000000
839.245300	194.000000
839.279541	177.000000
839.313843	183.000000
839.348145	191.000000
839.382385	188.000000
839.416687	191.000000
839.450989	188.000000
839.485229	183.000000
839.519531	181.000000
839.553833	187.000000
839.588013	186.000000
839.622314	184.000000
839.656555	186.000000
839.690857	179.000000
839.725159	181.000000
839.759460	184.000000
839.793640	186.000000
839.827942	186.000000
839.862183	180.000000
839.896423	182.000000
839.930725	196.000000
839.964966	193.000000
839.999207	193.000000
840.033508	192.000000
840.067688	182.000000
840.101990	186.000000
840.136230	182.000000
840.170471	190.000000
840.204712	178.000000
840.238953	179.000000
840.273193	185.000000
840.307434	185.000000
840.341736	184.000000
840.375916	181.000000
840.410217	186.000000
840.444397	191.000000
840.478638	189.000000
840.512878	187.000000
840.547119	190.000000
840.581360	189.000000
840.615601	196.000000
840.649780	203.000000
840.684021	184.000000
840.718262	189.000000
840.752441	192.000000
840.786682	189.000000
840.820862	187.000000
840.855103	194.000000
840.889343	188.000000
840.923584	188.000000
840.957764	184.000000
840.992004	187.000000
841.026184	199.000000
841.060425	187.000000
841.094666	182.000000
841.128845	190.000000
841.163025	184.000000
841.197266	189.000000
841.231445	184.000000
841.265686	188.000000
841.299866	182.000000
841.334045	197.000000
841.368286	181.000000
841.402405	194.000000
841.436646	185.000000
841.470825	183.000000
841.505005	183.000000
841.539185	181.000000
841.573425	179.000000
841.607544	185.000000
841.641785	181.000000
841.675964	181.000000
841.710144	187.000000
841.744324	181.000000
841.778503	184.000000
841.812683	187.000000
841.846863	188.000000
841.881042	192.000000
841.915222	180.000000
841.949402	199.000000
841.983521	174.000000
842.017700	183.000000
842.051880	184.000000
842.086060	192.000000
842.120239	188.000000
842.154419	186.000000
842.188538	185.000000
842.222717	186.000000
842.256897	194.000000
842.291016	187.000000
842.325195	188.000000
842.359375	199.000000
842.393494	192.000000
842.427673	187.000000
842.461853	187.000000
842.495911	194.000000
842.530090	189.000000
842.564209	183.000000
842.598389	189.000000
842.632568	189.000000
842.666626	190.000000
842.700806	187.000000
842.734985	186.000000
842.769043	186.000000
842.803223	187.000000
842.837402	180.000000
842.871460	183.000000
842.905640	197.000000
842.939697	185.000000
842.973877	186.000000
843.007996	195.000000
843.042175	193.000000
843.076233	184.000000
843.110413	187.000000
843.144470	198.000000
843.178589	189.000000
843.212769	186.000000
843.246826	189.000000
843.280945	184.000000
843.315125	184.000000
843.349182	182.000000
843.383301	188.000000
843.417419	198.000000
843.451538	187.000000
843.485657	181.000000
843.519714	185.000000
843.553833	193.000000
843.587952	179.000000
843.622070	181.000000
843.656128	190.000000
843.690247	185.000000
843.724304	183.000000
843.758423	189.000000
843.792542	181.000000
843.826599	186.000000
843.860718	181.000000
843.894836	180.000000
843.928894	187.000000
843.963013	188.000000
843.997070	180.000000
844.031128	187.000000
844.065247	193.000000
844.099304	187.000000
844.133362	188.000000
844.167480	190.000000
844.201599	193.000000
844.235596	189.000000
844.269714	189.000000
844.303711	188.000000
844.337830	183.000000
844.371948	187.000000
844.405945	186.000000
844.440063	181.000000
844.474121	203.000000
844.508118	189.000000
844.542236	190.000000
844.576294	190.000000
844.610352	181.000000
844.644409	186.000000
844.678406	182.000000
844.712524	188.000000
844.746582	197.000000
844.780640	188.000000
844.814636	187.000000
844.848755	194.000000
844.882751	188.000000
844.916809	187.000000
844.950867	190.000000
844.984863	188.000000
845.018921	187.000000
845.052979	182.000000
845.086975	188.000000
845.121033	176.000000
845.155090	181.000000
845.189087	191.000000
845.223145	179.000000
845.257141	185.000000
845.291199	185.000000
845.325256	189.000000
845.359253	188.000000
845.393250	198.000000
845.427307	184.000000
845.461304	185.000000
845.495361	185.000000
845.529358	197.000000
845.563354	180.000000
845.597412	182.000000
845.631409	191.000000
845.665405	189.000000
845.699463	192.000000
845.733459	187.000000
845.767456	192.000000
845.801453	185.000000
845.835449	191.000000
845.869446	191.000000
845.903503	189.000000
845.937439	178.000000
845.971497	195.000000
846.005493	182.000000
846.039429	189.000000
846.073486	195.000000
846.107483	186.000000
846.141418	185.000000
846.175476	190.000000
846.209473	194.000000
846.243408	182.000000
846.277405	188.000000
846.311401	183.000000
846.345337	187.000000
846.379395	191.000000
846.413330	185.000000
846.447327	189.000000
846.481323	179.000000
846.515259	184.000000
846.549255	187.000000
846.583252	190.000000
846.617187	183.000000
846.651184	186.000000
846.685120	185.000000
846.719055	195.000000
846.753052	192.000000
846.786987	189.000000
846.820984	184.000000
846.854980	192.000000
846.888916	177.000000
846.922852	188.000000
846.956848	191.000000
846.990723	178.000000
847.024719	189.000000
847.058716	181.000000
847.092590	198.000000
847.126587	186.000000
847.160522	183.000000
847.194458	186.000000
847.228455	182.000000
847.262390	181.000000
847.296265	185.000000
847.330261	195.000000
847.364136	188.000000
847.398132	185.000000
847.432068	188.000000
847.466003	184.000000
847.499939	184.000000
847.533875	191.000000
847.567749	183.000000
847.601746	183.000000
847.635681	196.000000
847.669556	178.000000
847.703491	190.000000
847.737427	203.000000
847.771301	181.000000
847.805237	188.000000
847.839233	186.000000
847.873108	185.000000
847.907043	185.000000
847.940918	194.000000
847.974854	187.000000
848.008789	194.000000
848.042664	189.000000
848.076538	187.000000
848.110474	181.000000
848.144348	188.000000
848.178284	180.000000
848.212219	186.000000
848.246094	178.000000
848.279968	189.000000
848.313904	189.000000
848.347778	189.000000
848.381653	182.000000
848.415588	185.000000
848.449463	182.000000
848.483337	190.000000
848.517212	193.000000
848.551086	190.000000
848.585022	176.000000
848.618835	199.000000
848.652771	186.000000
848.686646	185.000000
848.720520	196.000000
848.754395	188.000000
848.788330	189.000000
848.822144	193.000000
848.856018	183.000000
848.889954	196.000000
848.923767	182.000000
848.957642	180.000000
848.991577	185.000000
849.025391	187.000000
849.059265	187.000000
849.093079	179.000000
849.126953	181.000000
849.160828	195.000000
849.194641	185.000000
849.228577	188.000000
849.262451	187.000000
849.296265	181.000000
849.330139	185.000000
849.364014	187.000000
849.397827	188.000000
849.431702	188.000000
849.465515	190.000000
849.499329	177.000000
849.533203	184.000000
849.567078	178.000000
849.600891	187.000000
849.634766	186.000000
849.668518	196.000000
849.702393	185.000000
849.736267	183.000000
849.770020	194.000000
849.803894	189.000000
849.837769	184.000000
849.871521	188.000000
849.905396	194.000000
849.939270	185.000000
849.973022	185.000000
850.006897	190.000000
850.040710	190.000000
850.074524	192.000000
850.108337	181.000000
850.142151	193.000000
850.175964	190.000000
850.209778	183.000000
850.243530	174.000000
850.277405	193.000000
850.311218	185.000000
850.344971	185.000000
850.378845	193.000000
850.412659	183.000000
850.446411	189.000000
850.480225	188.000000
850.514038	189.000000
850.547791	188.000000
850.581665	184.000000
850.615417	180.000000
850.649231	183.000000
850.683044	187.000000
850.716858	184.000000
850.750610	189.000000
850.784424	194.000000
850.818176	186.000000
850.851929	186.000000
850.885742	186.000000
850.919495	187.000000
850.953308	197.000000
850.987122	196.000000
851.020874	182.000000
851.054626	183.000000
851.088440	190.000000
851.122192	189.000000
851.156006	187.000000
851.189697	188.000000
851.223511	184.000000
851.257263	198.000000
851.291077	193.000000
851.324829	182.000000
851.358582	184.000000
851.392334	186.000000
851.426086	182.000000
851.459900	196.000000
851.493591	186.000000
851.527344	191.000000
851.561157	187.000000
851.594849	193.000000
851.628662	184.000000
851.662415	196.000000
851.696106	190.000000
851.729858	193.000000
851.763611	181.000000
851.797363	187.000000
851.831116	180.000000
851.864868	191.000000
851.898560	194.000000
851.932312	188.000000
851.966064	188.000000
851.999817	187.000000
852.033569	183.000000
852.067261	195.000000
852.101013	184.000000
852.134766	185.000000
852.168457	177.000000
852.202209	195.000000
852.235901	182.000000
852.269592	192.000000
852.303345	193.000000
852.337036	193.000000
852.370789	187.000000
852.404541	192.000000
852.438171	184.000000
852.471924	185.000000
852.505676	182.000000
852.539307	185.000000
852.573059	182.000000
852.606812	188.000000
852.640442	183.000000
852.674194	194.000000
852.707886	199.000000
852.741577	196.000000
852.775269	183.000000
852.809021	186.000000
852.842651	187.000000
852.876404	193.000000
852.910034	191.000000
852.943787	193.000000
852.977478	193.000000
853.011108	181.000000
853.044861	182.000000
853.078552	199.000000
853.112183	191.000000
853.145874	187.000000
853.179626	181.000000
853.213257	189.000000
853.246948	186.000000
853.280640	200.000000
853.314270	188.000000
853.347961	190.000000
853.381653	189.000000
853.415283	190.000000
853.448975	181.000000
853.482605	186.000000
853.516296	188.000000
853.549988	179.000000
853.583618	191.000000
853.617310	188.000000
853.651001	189.000000
853.684631	185.000000
853.718323	183.000000
853.751953	190.000000
853.785583	179.000000
853.819275	190.000000
853.852966	188.000000
853.886536	178.000000
853.920227	185.000000
853.953918	188.000000
853.987488	187.000000
854.021179	186.000000
854.054749	192.000000
854.088440	189.000000
854.122131	184.000000
854.155701	186.000000
854.189331	187.000000
854.223022	190.000000
854.256592	188.000000
854.290283	184.000000
854.323914	193.000000
854.357483	186.000000
854.391174	190.000000
854.424744	197.000000
854.458374	191.000000
854.492065	196.000000
854.525696	194.000000
854.559265	191.000000
854.592896	198.000000
854.626465	190.000000
854.660095	188.000000
854.693787	188.000000
854.727356	187.000000
854.760986	185.000000
854.794617	189.000000
854.828186	187.000000
854.861816	191.000000
854.895447	189.000000
854.929016	190.000000
854.962585	191.000000
854.996155	196.000000
855.029785	189.000000
855.063416	185.000000
855.097046	192.000000
855.130615	178.000000
855.164185	194.000000
855.197754	186.000000
855.231384	191.000000
855.264954	182.000000
855.298523	197.000000
855.332153	185.000000
855.365723	195.000000
855.399292	183.000000
855.432922	185.000000
855.466492	187.000000
855.500061	185.000000
855.533630	183.000000
855.567200	193.000000
855.600769	188.000000
855.634338	193.000000
855.667969	186.000000
855.701477	184.000000
855.735046	184.000000
855.768616	176.000000
855.802185	187.000000
855.835754	204.000000
855.869324	175.000000
855.902893	189.000000
855.936401	192.000000
855.969971	191.000000
856.003540	178.000000
856.037109	188.000000
856.070618	181.000000
856.104187	179.000000
856.137695	187.000000
856.171265	176.000000
856.204834	187.000000
856.238403	192.000000
856.271912	184.000000
856.305481	186.000000
856.338989	182.000000
856.372559	188.000000
856.406128	192.000000
856.439636	189.000000
856.473145	186.000000
856.506653	190.000000
856.540222	187.000000
856.573792	192.000000
856.607300	190.000000
856.640808	184.000000
856.674377	191.000000
856.707825	217.000000
856.741394	192.000000
856.774902	181.000000
856.808472	179.000000
856.841980	189.000000
856.875488	194.000000
856.908936	179.000000
856.942505	186.000000
856.976013	178.000000
857.009521	187.000000
857.043030	183.000000
857.076477	185.000000
857.110046	193.000000
857.143555	190.000000
857.177063	187.000000
857.210571	188.000000
857.244080	177.000000
857.277527	189.000000
857.311035	181.000000
857.344543	192.000000
857.378052	185.000000
857.411499	192.000000
857.445068	198.000000
857.478516	188.000000
857.512024	179.000000
857.545532	187.000000
857.578979	184.000000
857.612427	189.000000
857.645874	181.000000
857.679382	182.000000
857.712891	190.000000
857.746399	190.000000
857.779846	185.000000
857.813354	191.000000
857.846741	186.000000
857.880249	180.000000
857.913757	185.000000
857.947266	189.000000
857.980652	189.000000
858.014160	186.000000
858.047546	188.000000
858.081055	187.000000
858.114563	198.000000
858.147949	182.000000
858.181458	191.000000
858.214844	186.000000
858.248352	178.000000
858.281799	189.000000
858.315308	201.000000
858.348694	187.000000
858.382141	195.000000
858.415588	191.000000
858.449036	193.000000
858.482483	187.000000
858.515930	187.000000
858.549377	187.000000
858.582825	194.000000
858.616211	186.000000
858.649658	190.000000
858.683105	179.000000
858.716553	187.000000
858.750000	180.000000
858.783386	185.000000
858.816833	178.000000
858.850281	189.000000
858.883728	184.000000
858.917114	187.000000
858.950562	192.000000
858.983948	190.000000
859.017395	186.000000
859.050781	185.000000
859.084167	176.000000
859.117615	179.000000
859.151062	191.000000
859.184448	181.000000
859.217834	181.000000
859.251282	188.000000
859.284668	181.000000
859.318054	178.000000
859.351440	187.000000
859.384888	193.000000
859.418274	177.000000
859.451721	181.000000
859.485046	186.000000
859.518494	192.000000
859.551819	186.000000
859.585266	190.000000
859.618652	190.000000
859.652039	183.000000
859.685425	181.000000
859.718811	185.000000
859.752197	179.000000
859.785583	194.000000
859.819031	196.000000
859.852356	190.000000
859.885742	182.000000
859.919067	182.000000
859.952454	186.000000
859.985901	192.000000
860.019287	184.000000
860.052612	0.000000
860.085999	0.000000
860.119324	0.000000
860.152710	0.000000
860.186096	0.000000
860.219421	0.000000
860.252808	0.000000
860.286133	0.000000
860.319519	0.000000
860.352905	0.000000
860.386292	0.000000
860.419617	0.000000
860.452942	0.000000
860.486267	0.000000
860.519653	0.000000
860.553040	0.000000
860.586365	0.000000
860.619690	0.000000
860.653076	0.000000
860.686340	0.000000
860.719727	0.000000
860.753113	0.000000
860.786377	0.000000
860.819763	0.000000
860.853027	0.000000
860.886414	0.000000
860.919739	0.000000
860.953125	0.000000
860.986389	0.000000
861.019714	0.000000
861.053040	0.000000
861.086365	0.000000
861.119690	0.000000
861.153076	0.000000
861.186340	0.000000
861.219666	0.000000
861.252930	0.000000
861.286316	0.000000
861.319641	0.000000
861.352905	0.000000
861.386230	0.000000
861.419495	0.000000
861.452820	0.000000
861.486145	0.000000
861.519470	0.000000
861.552734	0.000000
861.586060	0.000000
861.619324	0.000000
861.652649	0.000000
861.685974	0.000000
861.719238	0.000000
861.752563	0.000000
861.785828	0.000000
861.819092	0.000000
861.852417	0.000000
861.885742	0.000000
861.918945	0.000000
861.952271	0.000000
861.985535	0.000000
862.018799	0.000000
862.052124	0.000000
862.085449	0.000000
862.118652	0.000000
862.151978	0.000000
862.185181	0.000000
862.218506	0.000000
862.251770	0.000000
862.285034	0.000000
862.318298	0.000000
862.351562	0.000000
862.384827	0.000000
862.418091	0.000000
862.451355	0.000000
862.484619	0.000000
862.517883	0.000000
862.551086	0.000000
862.584351	0.000000
862.617676	0.000000
862.650940	0.000000
862.684143	0.000000
862.717407	0.000000
862.750610	0.000000
862.783875	0.000000
862.817139	0.000000
862.850342	0.000000
862.883606	0.000000
862.916870	0.000000
862.950073	0.000000
862.983337	0.000000
863.016602	0.000000
863.049805	0.000000
863.083069	0.000000
863.116211	0.000000
863.149475	0.000000
863.182739	0.000000
863.216003	0.000000
863.249146	0.000000
863.282410	0.000000
863.315613	0.000000
863.348816	0.000000
863.382080	0.000000
863.415222	0.000000
863.448486	0.000000
863.481689	0.000000
863.514893	0.000000
863.548157	0.000000
863.581360	0.000000
863.614502	0.000000
863.647766	0.000000
863.680908	0.000000
863.714172	0.000000
863.747375	0.000000
863.780579	0.000000
863.813721	0.000000
863.846985	0.000000
863.880127	0.000000
863.913330	0.000000
863.946533	0.000000
863.979675	0.000000
864.012939	0.000000
