Model Number: SPM-001-M   
Serial Number: 10090201
Firmware Version: 004.17.6
Exposure Time: 300000.000000us
Data Taken on: 21-01-2021 14:08:05.887
Wavelength	Amplitude
733.770752	0.000000
733.808716	0.000000
733.846619	0.000000
733.884583	0.000000
733.922546	0.000000
733.960449	0.000000
733.998413	0.000000
734.036377	0.000000
734.074219	0.000000
734.112183	0.000000
734.150085	0.000000
734.188049	0.000000
734.226013	0.000000
734.263916	0.000000
734.301819	0.000000
734.339783	0.000000
734.377686	0.000000
734.415588	0.000000
734.453552	0.000000
734.491455	0.000000
734.529419	0.000000
734.567322	0.000000
734.605225	0.000000
734.643127	0.000000
734.681091	0.000000
734.718994	0.000000
734.756897	0.000000
734.794800	0.000000
734.832703	0.000000
734.870667	0.000000
734.908508	0.000000
734.946472	0.000000
734.984375	0.000000
735.022278	0.000000
735.060181	0.000000
735.098083	0.000000
735.135986	0.000000
735.173889	0.000000
735.211792	0.000000
735.249695	0.000000
735.287598	0.000000
735.325439	0.000000
735.363403	0.000000
735.401306	0.000000
735.439148	0.000000
735.477051	0.000000
735.515015	0.000000
735.552856	0.000000
735.590759	0.000000
735.628662	0.000000
735.666504	0.000000
735.704407	0.000000
735.742310	0.000000
735.780212	0.000000
735.818115	0.000000
735.856018	0.000000
735.893860	0.000000
735.931763	0.000000
735.969604	0.000000
736.007507	0.000000
736.045410	0.000000
736.083252	0.000000
736.121094	0.000000
736.158997	0.000000
736.196838	0.000000
736.234741	0.000000
736.272644	0.000000
736.310486	0.000000
736.348389	0.000000
736.386230	0.000000
736.424072	0.000000
736.461975	0.000000
736.499878	0.000000
736.537720	0.000000
736.575562	0.000000
736.613403	0.000000
736.651306	0.000000
736.689148	0.000000
736.726990	0.000000
736.764893	0.000000
736.802734	0.000000
736.840576	0.000000
736.878418	0.000000
736.916321	0.000000
736.954102	0.000000
736.992004	0.000000
737.029846	0.000000
737.067688	0.000000
737.105530	0.000000
737.143372	0.000000
737.181213	0.000000
737.219116	0.000000
737.256897	0.000000
737.294739	0.000000
737.332642	0.000000
737.370422	0.000000
737.408325	0.000000
737.446167	0.000000
737.483948	0.000000
737.521790	0.000000
737.559692	0.000000
737.597473	0.000000
737.635315	0.000000
737.673157	0.000000
737.710999	0.000000
737.748840	0.000000
737.786621	0.000000
737.824463	0.000000
737.862305	0.000000
737.900085	0.000000
737.937927	0.000000
737.975769	0.000000
738.013550	0.000000
738.051392	0.000000
738.089233	0.000000
738.127014	0.000000
738.164856	0.000000
738.202698	0.000000
738.240479	0.000000
738.278320	0.000000
738.316162	0.000000
738.353943	0.000000
738.391785	0.000000
738.429565	0.000000
738.467407	0.000000
738.505188	0.000000
738.542969	0.000000
738.580811	0.000000
738.618652	0.000000
738.656372	0.000000
738.694214	0.000000
738.732056	0.000000
738.769836	0.000000
738.807617	0.000000
738.845459	0.000000
738.883240	0.000000
738.921021	0.000000
738.958862	0.000000
738.996582	0.000000
739.034424	0.000000
739.072205	0.000000
739.109985	0.000000
739.147827	0.000000
739.185547	0.000000
739.223389	0.000000
739.261169	0.000000
739.298889	0.000000
739.336731	0.000000
739.374512	0.000000
739.412292	0.000000
739.450073	0.000000
739.487854	0.000000
739.525635	0.000000
739.563416	0.000000
739.601135	0.000000
739.638977	0.000000
739.676758	0.000000
739.714478	0.000000
739.752258	0.000000
739.790100	0.000000
739.827820	0.000000
739.865601	0.000000
739.903381	0.000000
739.941101	0.000000
739.978882	191.000000
740.016724	195.000000
740.054443	190.000000
740.092224	191.000000
740.130005	188.000000
740.167725	189.000000
740.205505	190.000000
740.243225	196.000000
740.281006	188.000000
740.318787	188.000000
740.356506	195.000000
740.394287	195.000000
740.432068	188.000000
740.469727	187.000000
740.507507	191.000000
740.545288	194.000000
740.583008	193.000000
740.620789	189.000000
740.658569	186.000000
740.696228	193.000000
740.734009	196.000000
740.771790	181.000000
740.809509	196.000000
740.847229	187.000000
740.884949	191.000000
740.922729	187.000000
740.960449	193.000000
740.998169	185.000000
741.035950	190.000000
741.073669	191.000000
741.111389	195.000000
741.149170	194.000000
741.186890	199.000000
741.224609	192.000000
741.262329	195.000000
741.300110	197.000000
741.337769	190.000000
741.375549	187.000000
741.413208	194.000000
741.450989	188.000000
741.488708	186.000000
741.526367	185.000000
741.564148	196.000000
741.601868	194.000000
741.639526	190.000000
741.677307	191.000000
741.715027	196.000000
741.752686	186.000000
741.790466	195.000000
741.828186	192.000000
741.865845	186.000000
741.903564	182.000000
741.941345	195.000000
741.979004	185.000000
742.016724	198.000000
742.054382	197.000000
742.092102	194.000000
742.129822	186.000000
742.167480	192.000000
742.205200	186.000000
742.242920	195.000000
742.280640	197.000000
742.318359	188.000000
742.356079	189.000000
742.393738	192.000000
742.431396	194.000000
742.469116	197.000000
742.506775	184.000000
742.544495	192.000000
742.582214	198.000000
742.619873	190.000000
742.657593	198.000000
742.695251	197.000000
742.732971	189.000000
742.770630	191.000000
742.808289	193.000000
742.846008	186.000000
742.883728	196.000000
742.921326	193.000000
742.959045	192.000000
742.996765	188.000000
743.034424	193.000000
743.072083	187.000000
743.109802	188.000000
743.147400	188.000000
743.185120	194.000000
743.222839	189.000000
743.260437	195.000000
743.298157	189.000000
743.335754	182.000000
743.373474	188.000000
743.411133	188.000000
743.448792	185.000000
743.486450	191.000000
743.524170	184.000000
743.561768	188.000000
743.599487	195.000000
743.637146	201.000000
743.674744	190.000000
743.712463	190.000000
743.750122	188.000000
743.787720	192.000000
743.825439	189.000000
743.863037	189.000000
743.900696	190.000000
743.938416	217.000000
743.976013	193.000000
744.013672	196.000000
744.051331	193.000000
744.088928	199.000000
744.126587	193.000000
744.164307	193.000000
744.201904	191.000000
744.239563	191.000000
744.277222	191.000000
744.314819	186.000000
744.352478	199.000000
744.390137	192.000000
744.427734	194.000000
744.465393	188.000000
744.502991	189.000000
744.540649	189.000000
744.578308	194.000000
744.615906	186.000000
744.653564	187.000000
744.691223	191.000000
744.728821	189.000000
744.766418	189.000000
744.804077	189.000000
744.841675	189.000000
744.879333	191.000000
744.916992	189.000000
744.954529	193.000000
744.992187	197.000000
745.029785	191.000000
745.067444	190.000000
745.105042	192.000000
745.142639	191.000000
745.180298	200.000000
745.217896	193.000000
745.255493	187.000000
745.293152	191.000000
745.330750	197.000000
745.368347	197.000000
745.405945	193.000000
745.443604	191.000000
745.481140	195.000000
745.518799	191.000000
745.556396	195.000000
745.593994	190.000000
745.631592	193.000000
745.669189	188.000000
745.706787	189.000000
745.744385	190.000000
745.781982	196.000000
745.819580	191.000000
745.857178	189.000000
745.894775	191.000000
745.932373	188.000000
745.969971	193.000000
746.007568	183.000000
746.045166	201.000000
746.082764	196.000000
746.120300	197.000000
746.157898	193.000000
746.195557	193.000000
746.233093	183.000000
746.270691	193.000000
746.308228	193.000000
746.345825	196.000000
746.383423	190.000000
746.420959	189.000000
746.458557	186.000000
746.496155	194.000000
746.533691	190.000000
746.571289	187.000000
746.608887	192.000000
746.646423	195.000000
746.684021	194.000000
746.721619	192.000000
746.759155	194.000000
746.796753	189.000000
746.834351	186.000000
746.871826	193.000000
746.909424	199.000000
746.946960	193.000000
746.984558	192.000000
747.022156	188.000000
747.059631	195.000000
747.097229	196.000000
747.134827	190.000000
747.172363	197.000000
747.209900	197.000000
747.247498	183.000000
747.285034	193.000000
747.322571	195.000000
747.360168	196.000000
747.397644	185.000000
747.435242	193.000000
747.472778	193.000000
747.510315	195.000000
747.547913	189.000000
747.585388	195.000000
747.622925	187.000000
747.660522	186.000000
747.697998	187.000000
747.735596	192.000000
747.773132	189.000000
747.810669	190.000000
747.848206	185.000000
747.885742	189.000000
747.923279	184.000000
747.960815	191.000000
747.998352	188.000000
748.035889	196.000000
748.073425	190.000000
748.110901	191.000000
748.148437	189.000000
748.185974	194.000000
748.223511	201.000000
748.261047	194.000000
748.298584	191.000000
748.336060	191.000000
748.373596	193.000000
748.411133	218.000000
748.448608	191.000000
748.486145	195.000000
748.523682	195.000000
748.561218	199.000000
748.598755	194.000000
748.636292	197.000000
748.673706	191.000000
748.711243	199.000000
748.748718	191.000000
748.786255	194.000000
748.823792	192.000000
748.861267	185.000000
748.898804	194.000000
748.936340	193.000000
748.973816	191.000000
749.011292	196.000000
749.048828	194.000000
749.086304	188.000000
749.123840	204.000000
749.161316	189.000000
749.198792	196.000000
749.236328	193.000000
749.273743	191.000000
749.311279	188.000000
749.348816	198.000000
749.386230	192.000000
749.423767	183.000000
749.461304	189.000000
749.498718	195.000000
749.536255	193.000000
749.573730	201.000000
749.611206	195.000000
749.648682	192.000000
749.686218	194.000000
749.723633	197.000000
749.761169	188.000000
749.798645	189.000000
749.836060	194.000000
749.873596	189.000000
749.911011	192.000000
749.948547	199.000000
749.986023	189.000000
750.023437	190.000000
750.060913	185.000000
750.098450	187.000000
750.135864	195.000000
750.173340	190.000000
750.210815	194.000000
750.248291	190.000000
750.285767	194.000000
750.323242	198.000000
750.360657	201.000000
750.398132	188.000000
750.435608	191.000000
750.473022	190.000000
750.510498	192.000000
750.547974	183.000000
750.585449	194.000000
750.622925	179.000000
750.660339	203.000000
750.697815	192.000000
750.735291	196.000000
750.772644	186.000000
750.810120	192.000000
750.847595	187.000000
750.885010	191.000000
750.922485	195.000000
750.959961	188.000000
750.997375	193.000000
751.034851	197.000000
751.072266	196.000000
751.109680	185.000000
751.147156	195.000000
751.184570	192.000000
751.221985	190.000000
751.259460	185.000000
751.296875	190.000000
751.334290	188.000000
751.371765	190.000000
751.409180	197.000000
751.446594	195.000000
751.484070	194.000000
751.521423	192.000000
751.558899	193.000000
751.596375	201.000000
751.633728	197.000000
751.671204	197.000000
751.708618	189.000000
751.746033	194.000000
751.783447	186.000000
751.820801	194.000000
751.858276	196.000000
751.895691	194.000000
751.933105	189.000000
751.970520	188.000000
752.007935	189.000000
752.045349	196.000000
752.082764	192.000000
752.120178	192.000000
752.157532	189.000000
752.195007	191.000000
752.232422	192.000000
752.269775	196.000000
752.307190	192.000000
752.344543	190.000000
752.382019	189.000000
752.419434	190.000000
752.456787	190.000000
752.494202	197.000000
752.531616	194.000000
752.568970	191.000000
752.606384	194.000000
752.643799	193.000000
752.681152	196.000000
752.718567	197.000000
752.755981	186.000000
752.793335	195.000000
752.830750	182.000000
752.868164	197.000000
752.905518	187.000000
752.942932	195.000000
752.980225	188.000000
753.017639	193.000000
753.055054	193.000000
753.092407	196.000000
753.129822	191.000000
753.167175	197.000000
753.204529	195.000000
753.241943	190.000000
753.279358	186.000000
753.316650	190.000000
753.354065	196.000000
753.391479	196.000000
753.428772	196.000000
753.466187	191.000000
753.503479	190.000000
753.540894	193.000000
753.578308	188.000000
753.615601	187.000000
753.653015	195.000000
753.690369	184.000000
753.727722	191.000000
753.765076	183.000000
753.802490	186.000000
753.839783	186.000000
753.877136	191.000000
753.914551	204.000000
753.951843	191.000000
753.989258	197.000000
754.026611	193.000000
754.063904	191.000000
754.101257	189.000000
754.138611	183.000000
754.175964	194.000000
754.213318	198.000000
754.250610	189.000000
754.288025	188.000000
754.325378	193.000000
754.362671	190.000000
754.400024	193.000000
754.437378	201.000000
754.474670	196.000000
754.512085	188.000000
754.549438	192.000000
754.586731	188.000000
754.624084	193.000000
754.661438	190.000000
754.698730	194.000000
754.736084	190.000000
754.773376	197.000000
754.810730	197.000000
754.848083	191.000000
754.885315	202.000000
754.922668	188.000000
754.960022	193.000000
754.997314	197.000000
755.034668	193.000000
755.072021	190.000000
755.109253	191.000000
755.146606	195.000000
755.183960	193.000000
755.221252	198.000000
755.258545	198.000000
755.295898	198.000000
755.333191	199.000000
755.370544	193.000000
755.407776	195.000000
755.445129	193.000000
755.482422	194.000000
755.519714	190.000000
755.557068	186.000000
755.594360	183.000000
755.631653	197.000000
755.668945	199.000000
755.706299	195.000000
755.743530	197.000000
755.780884	202.000000
755.818176	195.000000
755.855408	197.000000
755.892761	194.000000
755.930054	192.000000
755.967346	193.000000
756.004639	193.000000
756.041870	189.000000
756.079224	199.000000
756.116516	189.000000
756.153748	199.000000
756.191040	199.000000
756.228394	195.000000
756.265625	190.000000
756.302917	198.000000
756.340210	192.000000
756.377441	197.000000
756.414795	200.000000
756.452087	195.000000
756.489319	187.000000
756.526611	195.000000
756.563843	196.000000
756.601135	198.000000
756.638428	205.000000
756.675659	197.000000
756.712952	197.000000
756.750244	192.000000
756.787476	198.000000
756.824768	195.000000
756.862061	196.000000
756.899292	239.000000
756.936584	199.000000
756.973816	202.000000
757.011047	202.000000
757.048340	192.000000
757.085632	195.000000
757.122864	206.000000
757.160156	193.000000
757.197327	192.000000
757.234619	203.000000
757.271912	190.000000
757.309082	201.000000
757.346375	191.000000
757.383667	198.000000
757.420837	195.000000
757.458130	196.000000
757.495422	190.000000
757.532593	201.000000
757.569885	188.000000
757.607117	189.000000
757.644348	194.000000
757.681580	212.000000
757.718811	192.000000
757.756042	197.000000
757.793335	199.000000
757.830505	203.000000
757.867798	196.000000
757.905029	198.000000
757.942200	195.000000
757.979492	196.000000
758.016724	197.000000
758.053894	193.000000
758.091187	210.000000
758.128418	197.000000
758.165588	197.000000
758.202820	209.000000
758.240112	199.000000
758.277283	200.000000
758.314514	200.000000
758.351685	195.000000
758.388916	205.000000
758.426147	200.000000
758.463379	204.000000
758.500610	200.000000
758.537842	198.000000
758.575012	203.000000
758.612244	194.000000
758.649475	208.000000
758.686646	199.000000
758.723877	199.000000
758.761108	203.000000
758.798279	195.000000
758.835510	202.000000
758.872742	206.000000
758.909851	203.000000
758.947083	198.000000
758.984253	203.000000
759.021484	206.000000
759.058716	203.000000
759.095886	207.000000
759.133057	201.000000
759.170288	199.000000
759.207458	201.000000
759.244690	213.000000
759.281860	211.000000
759.319031	204.000000
759.356262	201.000000
759.393433	200.000000
759.430603	206.000000
759.467773	202.000000
759.505005	208.000000
759.542175	206.000000
759.579346	207.000000
759.616516	204.000000
759.653687	207.000000
759.690918	205.000000
759.728027	205.000000
759.765259	207.000000
759.802429	202.000000
759.839539	206.000000
759.876770	207.000000
759.913940	213.000000
759.951111	200.000000
759.988281	205.000000
760.025452	199.000000
760.062561	201.000000
760.099792	210.000000
760.136963	212.000000
760.174072	200.000000
760.211243	202.000000
760.248413	201.000000
760.285583	200.000000
760.322754	209.000000
760.359863	214.000000
760.397034	210.000000
760.434204	204.000000
760.471375	202.000000
760.508545	201.000000
760.545715	204.000000
760.582825	202.000000
760.619995	201.000000
760.657166	203.000000
760.694275	211.000000
760.731445	205.000000
760.768555	205.000000
760.805664	211.000000
760.842834	208.000000
760.879944	209.000000
760.917114	210.000000
760.954285	208.000000
760.991394	205.000000
761.028564	215.000000
761.065674	209.000000
761.102783	210.000000
761.139954	210.000000
761.177124	212.000000
761.214172	215.000000
761.251343	210.000000
761.288452	208.000000
761.325562	212.000000
761.362732	209.000000
761.399841	208.000000
761.436951	210.000000
761.474121	204.000000
761.511169	212.000000
761.548340	214.000000
761.585449	217.000000
761.622559	212.000000
761.659668	210.000000
761.696838	214.000000
761.733887	210.000000
761.771057	212.000000
761.808167	211.000000
761.845276	209.000000
761.882385	223.000000
761.919434	211.000000
761.956604	229.000000
761.993713	207.000000
762.030762	217.000000
762.067871	206.000000
762.105042	214.000000
762.142090	221.000000
762.179199	213.000000
762.216309	215.000000
762.253418	227.000000
762.290527	221.000000
762.327637	218.000000
762.364685	210.000000
762.401794	215.000000
762.438904	213.000000
762.475952	213.000000
762.513062	209.000000
762.550110	210.000000
762.587219	223.000000
762.624329	222.000000
762.661377	217.000000
762.698486	217.000000
762.735596	217.000000
762.772644	214.000000
762.809753	211.000000
762.846863	218.000000
762.883911	222.000000
762.921021	218.000000
762.958069	214.000000
762.995117	221.000000
763.032227	227.000000
763.069336	214.000000
763.106323	218.000000
763.143433	215.000000
763.180481	218.000000
763.217590	218.000000
763.254639	217.000000
763.291687	217.000000
763.328735	228.000000
763.365845	216.000000
763.402893	217.000000
763.439941	220.000000
763.477051	227.000000
763.514038	220.000000
763.551147	220.000000
763.588196	218.000000
763.625244	218.000000
763.662292	224.000000
763.699402	233.000000
763.736389	223.000000
763.773499	235.000000
763.810486	225.000000
763.847534	224.000000
763.884644	223.000000
763.921631	228.000000
763.958679	231.000000
763.995728	226.000000
764.032776	231.000000
764.069824	225.000000
764.106873	230.000000
764.143860	228.000000
764.180969	228.000000
764.218018	232.000000
764.255005	229.000000
764.292053	225.000000
764.329102	231.000000
764.366089	234.000000
764.403137	236.000000
764.440125	228.000000
764.477173	229.000000
764.514221	230.000000
764.551208	232.000000
764.588257	225.000000
764.625305	235.000000
764.662292	239.000000
764.699341	236.000000
764.736389	237.000000
764.773376	249.000000
764.810425	237.000000
764.847473	238.000000
764.884399	236.000000
764.921448	246.000000
764.958435	237.000000
764.995483	235.000000
765.032532	248.000000
765.069458	234.000000
765.106506	237.000000
765.143555	237.000000
765.180481	236.000000
765.217529	249.000000
765.254578	236.000000
765.291504	242.000000
765.328552	240.000000
765.365540	241.000000
765.402527	249.000000
765.439575	240.000000
765.476501	237.000000
765.513550	237.000000
765.550537	242.000000
765.587463	245.000000
765.624512	241.000000
765.661499	241.000000
765.698486	250.000000
765.735474	242.000000
765.772461	246.000000
765.809448	249.000000
765.846436	248.000000
765.883423	252.000000
765.920410	245.000000
765.957397	244.000000
765.994385	249.000000
766.031311	255.000000
766.068359	253.000000
766.105286	247.000000
766.142273	257.000000
766.179260	247.000000
766.216187	244.000000
766.253174	247.000000
766.290161	249.000000
766.327148	248.000000
766.364136	254.000000
766.401123	261.000000
766.438049	251.000000
766.475037	259.000000
766.512024	259.000000
766.548950	265.000000
766.585937	265.000000
766.622864	254.000000
766.659790	254.000000
766.696777	246.000000
766.733704	260.000000
766.770691	253.000000
766.807678	269.000000
766.844604	259.000000
766.881531	266.000000
766.918518	263.000000
766.955444	268.000000
766.992432	255.000000
767.029358	263.000000
767.066284	261.000000
767.103271	269.000000
767.140198	300.000000
767.177124	274.000000
767.214050	267.000000
767.251038	265.000000
767.287964	267.000000
767.324890	266.000000
767.361816	268.000000
767.398743	274.000000
767.435730	266.000000
767.472595	271.000000
767.509583	273.000000
767.546509	264.000000
767.583374	274.000000
767.620361	263.000000
767.657288	267.000000
767.694214	263.000000
767.731140	268.000000
767.768066	263.000000
767.804993	272.000000
767.841919	265.000000
767.878845	275.000000
767.915710	273.000000
767.952698	271.000000
767.989563	274.000000
768.026489	268.000000
768.063416	265.000000
768.100281	265.000000
768.137207	278.000000
768.174133	276.000000
768.211060	272.000000
768.247986	276.000000
768.284912	276.000000
768.321777	273.000000
768.358704	270.000000
768.395630	276.000000
768.432495	267.000000
768.469421	278.000000
768.506348	274.000000
768.543152	285.000000
768.580078	284.000000
768.616943	282.000000
768.653870	288.000000
768.690796	281.000000
768.727661	279.000000
768.764587	281.000000
768.801453	278.000000
768.838318	285.000000
768.875244	285.000000
768.912109	290.000000
768.948975	283.000000
768.985901	284.000000
769.022766	283.000000
769.059631	280.000000
769.096558	284.000000
769.133362	281.000000
769.170288	287.000000
769.207214	283.000000
769.244019	290.000000
769.280945	281.000000
769.317810	303.000000
769.354675	289.000000
769.391541	295.000000
769.428406	289.000000
769.465271	302.000000
769.502136	294.000000
769.539062	301.000000
769.575867	298.000000
769.612732	297.000000
769.649597	296.000000
769.686462	302.000000
769.723328	295.000000
769.760193	301.000000
769.797058	301.000000
769.833923	304.000000
769.870728	305.000000
769.907593	312.000000
769.944519	298.000000
769.981323	309.000000
770.018188	313.000000
770.055054	309.000000
770.091858	309.000000
770.128723	319.000000
770.165588	321.000000
770.202393	315.000000
770.239258	320.000000
770.276062	317.000000
770.312927	316.000000
770.349792	323.000000
770.386597	317.000000
770.423462	326.000000
770.460327	334.000000
770.497131	319.000000
770.533997	317.000000
770.570862	329.000000
770.607605	328.000000
770.644470	331.000000
770.681335	328.000000
770.718140	328.000000
770.754944	326.000000
770.791809	323.000000
770.828613	325.000000
770.865479	327.000000
770.902222	333.000000
770.939087	320.000000
770.975952	323.000000
771.012695	329.000000
771.049561	339.000000
771.086365	329.000000
771.123169	335.000000
771.159973	331.000000
771.196838	338.000000
771.233582	334.000000
771.270447	343.000000
771.307251	338.000000
771.344055	333.000000
771.380859	342.000000
771.417664	338.000000
771.454468	342.000000
771.491272	342.000000
771.528076	344.000000
771.564880	347.000000
771.601685	347.000000
771.638428	344.000000
771.675293	349.000000
771.712097	337.000000
771.748840	357.000000
771.785645	359.000000
771.822449	348.000000
771.859253	350.000000
771.896057	346.000000
771.932861	361.000000
771.969604	349.000000
772.006409	347.000000
772.043213	359.000000
772.079956	349.000000
772.116760	352.000000
772.153503	352.000000
772.190308	359.000000
772.227112	355.000000
772.263855	352.000000
772.300659	355.000000
772.337463	364.000000
772.374207	353.000000
772.411011	357.000000
772.447754	364.000000
772.484497	369.000000
772.521301	360.000000
772.558105	363.000000
772.594849	357.000000
772.631592	365.000000
772.668396	363.000000
772.705139	368.000000
772.741882	363.000000
772.778625	368.000000
772.815430	378.000000
772.852173	373.000000
772.888916	386.000000
772.925720	381.000000
772.962463	392.000000
772.999207	371.000000
773.035950	377.000000
773.072754	385.000000
773.109436	378.000000
773.146240	379.000000
773.182922	377.000000
773.219727	385.000000
773.256470	382.000000
773.293152	378.000000
773.329956	374.000000
773.366699	384.000000
773.403381	379.000000
773.440186	378.000000
773.476929	392.000000
773.513611	384.000000
773.550354	379.000000
773.587158	381.000000
773.623840	369.000000
773.660583	392.000000
773.697327	392.000000
773.734009	386.000000
773.770813	385.000000
773.807495	373.000000
773.844238	386.000000
773.880981	400.000000
773.917664	392.000000
773.954407	401.000000
773.991150	397.000000
774.027832	395.000000
774.064575	396.000000
774.101318	398.000000
774.138000	406.000000
774.174744	393.000000
774.211487	401.000000
774.248108	383.000000
774.284851	392.000000
774.321594	402.000000
774.358276	401.000000
774.395020	403.000000
774.431702	408.000000
774.468384	394.000000
774.505127	395.000000
774.541809	406.000000
774.578491	414.000000
774.615234	419.000000
774.651917	412.000000
774.688599	402.000000
774.725342	419.000000
774.762024	414.000000
774.798706	417.000000
774.835449	408.000000
774.872070	419.000000
774.908813	420.000000
774.945496	424.000000
774.982178	425.000000
775.018860	422.000000
775.055542	422.000000
775.092224	427.000000
775.128967	429.000000
775.165588	425.000000
775.202271	426.000000
775.239014	429.000000
775.275635	433.000000
775.312317	424.000000
775.349060	429.000000
775.385681	439.000000
775.422363	425.000000
775.459045	432.000000
775.495667	444.000000
775.532410	440.000000
775.569092	445.000000
775.605713	440.000000
775.642395	443.000000
775.679016	443.000000
775.715698	440.000000
775.752380	451.000000
775.789001	443.000000
775.825684	439.000000
775.862366	453.000000
775.898987	447.000000
775.935669	445.000000
775.972351	467.000000
776.008972	461.000000
776.045654	460.000000
776.082336	466.000000
776.118958	466.000000
776.155640	473.000000
776.192322	475.000000
776.228882	481.000000
776.265564	479.000000
776.302185	479.000000
776.338867	474.000000
776.375488	468.000000
776.412109	479.000000
776.448792	475.000000
776.485413	498.000000
776.522034	474.000000
776.558716	481.000000
776.595337	480.000000
776.631958	486.000000
776.668579	482.000000
776.705261	494.000000
776.741882	486.000000
776.778503	491.000000
776.815186	485.000000
776.851746	488.000000
776.888367	495.000000
776.924988	503.000000
776.961609	497.000000
776.998291	494.000000
777.034851	479.000000
777.071472	502.000000
777.108154	497.000000
777.144714	511.000000
777.181335	501.000000
777.218018	499.000000
777.254578	501.000000
777.291199	506.000000
777.327759	507.000000
777.364380	518.000000
777.401062	521.000000
777.437622	527.000000
777.474243	511.000000
777.510864	529.000000
777.547424	510.000000
777.584045	530.000000
777.620667	524.000000
777.657227	536.000000
777.693848	531.000000
777.730469	544.000000
777.767029	536.000000
777.803650	543.000000
777.840271	538.000000
777.876831	528.000000
777.913452	539.000000
777.950012	532.000000
777.986633	524.000000
778.023193	528.000000
778.059753	529.000000
778.096375	530.000000
778.132996	539.000000
778.169556	536.000000
778.206116	531.000000
778.242737	530.000000
778.279297	541.000000
778.315857	535.000000
778.352478	539.000000
778.389038	537.000000
778.425598	546.000000
778.462219	536.000000
778.498718	541.000000
778.535339	544.000000
778.571838	548.000000
778.608459	539.000000
778.645020	538.000000
778.681580	548.000000
778.718140	557.000000
778.754761	546.000000
778.791260	547.000000
778.827881	555.000000
778.864441	554.000000
778.900940	561.000000
778.937561	565.000000
778.974121	565.000000
779.010620	559.000000
779.047241	562.000000
779.083801	568.000000
779.120300	557.000000
779.156860	569.000000
779.193359	559.000000
779.229980	560.000000
779.266541	570.000000
779.303040	568.000000
779.339600	572.000000
779.376160	572.000000
779.412659	563.000000
779.449219	566.000000
779.485779	573.000000
779.522278	568.000000
779.558838	573.000000
779.595398	569.000000
779.631897	570.000000
779.668457	554.000000
779.705017	579.000000
779.741516	561.000000
779.778076	571.000000
779.814575	571.000000
779.851074	575.000000
779.887634	561.000000
779.924133	579.000000
779.960693	556.000000
779.997253	579.000000
780.033691	574.000000
780.070251	571.000000
780.106812	598.000000
780.143250	580.000000
780.179810	573.000000
780.216370	586.000000
780.252808	576.000000
780.289368	585.000000
780.325867	590.000000
780.362366	581.000000
780.398865	592.000000
780.435364	598.000000
780.471863	604.000000
780.508423	601.000000
780.544861	592.000000
780.581421	596.000000
780.617920	593.000000
780.654419	584.000000
780.690918	596.000000
780.727417	605.000000
780.763916	600.000000
780.800415	618.000000
780.836914	613.000000
780.873352	622.000000
780.909912	609.000000
780.946411	602.000000
780.982849	617.000000
781.019348	629.000000
781.055786	617.000000
781.092346	609.000000
781.128845	616.000000
781.165283	622.000000
781.201782	648.000000
781.238281	642.000000
781.274719	646.000000
781.311218	639.000000
781.347717	648.000000
781.384155	639.000000
781.420654	644.000000
781.457092	645.000000
781.493591	645.000000
781.530090	644.000000
781.566528	635.000000
781.602966	646.000000
781.639465	637.000000
781.675903	631.000000
781.712402	648.000000
781.748901	656.000000
781.785278	647.000000
781.821777	641.000000
781.858276	642.000000
781.894714	667.000000
781.931152	654.000000
781.967651	660.000000
782.004089	659.000000
782.040527	669.000000
782.076965	673.000000
782.113403	661.000000
782.149902	681.000000
782.186340	664.000000
782.222778	689.000000
782.259277	681.000000
782.295654	673.000000
782.332092	670.000000
782.368591	669.000000
782.404968	660.000000
782.441467	646.000000
782.477905	621.000000
782.514282	581.000000
782.550781	564.000000
782.587219	524.000000
782.623596	502.000000
782.660095	483.000000
782.696472	509.000000
782.732910	548.000000
782.769348	621.000000
782.805786	681.000000
782.842224	714.000000
782.878662	716.000000
782.915039	726.000000
782.951477	729.000000
782.987915	733.000000
783.024292	729.000000
783.060730	735.000000
783.097168	728.000000
783.133545	723.000000
783.169983	711.000000
783.206421	698.000000
783.242798	709.000000
783.279236	708.000000
783.315613	706.000000
783.352051	699.000000
783.388489	709.000000
783.424866	700.000000
783.461304	699.000000
783.497681	697.000000
783.534058	710.000000
783.570496	699.000000
783.606934	702.000000
783.643250	708.000000
783.679687	705.000000
783.716125	712.000000
783.752441	724.000000
783.788879	734.000000
783.825317	748.000000
783.861633	754.000000
783.898071	753.000000
783.934448	761.000000
783.970825	776.000000
784.007263	781.000000
784.043579	776.000000
784.080017	787.000000
784.116394	766.000000
784.152710	768.000000
784.189148	790.000000
784.225525	769.000000
784.261902	768.000000
784.298279	755.000000
784.334656	770.000000
784.371033	753.000000
784.407410	759.000000
784.443787	749.000000
784.480164	726.000000
784.516541	739.000000
784.552856	736.000000
784.589233	719.000000
784.625610	727.000000
784.661987	745.000000
784.698364	742.000000
784.734741	730.000000
784.771057	727.000000
784.807434	747.000000
784.843811	762.000000
784.880127	742.000000
784.916504	771.000000
784.952881	778.000000
784.989197	788.000000
785.025574	786.000000
785.061951	788.000000
785.098267	795.000000
785.134644	805.000000
785.170959	798.000000
785.207275	801.000000
785.243652	801.000000
785.279968	776.000000
785.316345	775.000000
785.352722	784.000000
785.388977	787.000000
785.425354	764.000000
785.461731	745.000000
785.498047	739.000000
785.534363	731.000000
785.570679	736.000000
785.606995	727.000000
785.643372	728.000000
785.679687	731.000000
785.716003	726.000000
785.752380	723.000000
785.788635	735.000000
785.825012	753.000000
785.861328	742.000000
785.897644	740.000000
785.933960	748.000000
785.970337	762.000000
786.006592	776.000000
786.042908	786.000000
786.079285	787.000000
786.115540	795.000000
786.151855	795.000000
786.188171	805.000000
786.224487	809.000000
786.260803	813.000000
786.297119	812.000000
786.333435	806.000000
786.369751	807.000000
786.406006	807.000000
786.442322	783.000000
786.478638	783.000000
786.514954	777.000000
786.551270	780.000000
786.587585	786.000000
786.623840	777.000000
786.660156	761.000000
786.696472	756.000000
786.732727	743.000000
786.769043	766.000000
786.805298	756.000000
786.841614	759.000000
786.877930	777.000000
786.914124	774.000000
786.950439	788.000000
786.986755	793.000000
787.023010	810.000000
787.059326	799.000000
787.095642	817.000000
787.131836	826.000000
787.168152	825.000000
787.204468	842.000000
787.240723	853.000000
787.276978	842.000000
787.313293	846.000000
787.349548	845.000000
787.385803	845.000000
787.422058	859.000000
787.458313	850.000000
787.494629	842.000000
787.530823	844.000000
787.567139	825.000000
787.603455	809.000000
787.639648	803.000000
787.675903	802.000000
787.712219	791.000000
787.748413	812.000000
787.784729	815.000000
787.820984	793.000000
787.857178	792.000000
787.893494	798.000000
787.929749	791.000000
787.965942	807.000000
788.002258	809.000000
788.038452	817.000000
788.074707	810.000000
788.110962	830.000000
788.147217	834.000000
788.183472	839.000000
788.219727	850.000000
788.255920	875.000000
788.292175	861.000000
788.328430	867.000000
788.364624	846.000000
788.400879	861.000000
788.437134	865.000000
788.473328	847.000000
788.509583	855.000000
788.545837	862.000000
788.582031	859.000000
788.618286	863.000000
788.654480	857.000000
788.690735	858.000000
788.726990	870.000000
788.763184	885.000000
788.799377	884.000000
788.835632	876.000000
788.871826	901.000000
788.908081	883.000000
788.944336	882.000000
788.980469	909.000000
789.016724	894.000000
789.052979	881.000000
789.089111	875.000000
789.125366	886.000000
789.161621	877.000000
789.197754	870.000000
789.234009	882.000000
789.270142	870.000000
789.306396	877.000000
789.342590	870.000000
789.378784	845.000000
789.414978	843.000000
789.451233	850.000000
789.487366	854.000000
789.523621	862.000000
789.559814	863.000000
789.595947	853.000000
789.632202	869.000000
789.668335	887.000000
789.704529	903.000000
789.740784	927.000000
789.776917	915.000000
789.813110	913.000000
789.849304	911.000000
789.885498	921.000000
789.921692	937.000000
789.957886	934.000000
789.994019	942.000000
790.030212	941.000000
790.066406	946.000000
790.102539	947.000000
790.138733	965.000000
790.174927	960.000000
790.211060	972.000000
790.247253	958.000000
790.283386	955.000000
790.319580	927.000000
790.355774	919.000000
790.391907	895.000000
790.428101	917.000000
790.464294	926.000000
790.500427	925.000000
790.536621	915.000000
790.572754	894.000000
790.608887	886.000000
790.645081	906.000000
790.681274	920.000000
790.717346	915.000000
790.753540	911.000000
790.789734	881.000000
790.825867	887.000000
790.862000	881.000000
790.898132	908.000000
790.934265	900.000000
790.970459	889.000000
791.006592	886.000000
791.042725	875.000000
791.078918	873.000000
791.114990	877.000000
791.151184	884.000000
791.187317	891.000000
791.223389	897.000000
791.259583	890.000000
791.295715	892.000000
791.331848	893.000000
791.367981	913.000000
791.404114	912.000000
791.440247	907.000000
791.476379	896.000000
791.512451	892.000000
791.548584	884.000000
791.584778	882.000000
791.620850	895.000000
791.656982	904.000000
791.693115	902.000000
791.729187	897.000000
791.765381	891.000000
791.801514	895.000000
791.837585	895.000000
791.873718	898.000000
791.909851	913.000000
791.945923	919.000000
791.982056	904.000000
792.018188	895.000000
792.054260	890.000000
792.090393	893.000000
792.126465	895.000000
792.162598	901.000000
792.198669	885.000000
792.234741	884.000000
792.270874	878.000000
792.307007	877.000000
792.343079	862.000000
792.379150	878.000000
792.415283	872.000000
792.451355	892.000000
792.487488	860.000000
792.523560	863.000000
792.559631	833.000000
792.595764	803.000000
792.631836	786.000000
792.667908	769.000000
792.703979	752.000000
792.740051	760.000000
792.776184	786.000000
792.812256	789.000000
792.848328	816.000000
792.884399	832.000000
792.920471	825.000000
792.956543	825.000000
792.992615	818.000000
793.028748	816.000000
793.064758	817.000000
793.100830	846.000000
793.136963	855.000000
793.172974	845.000000
793.209045	841.000000
793.245178	853.000000
793.281189	845.000000
793.317261	844.000000
793.353271	848.000000
793.389404	865.000000
793.425476	865.000000
793.461487	848.000000
793.497559	840.000000
793.533630	836.000000
793.569641	833.000000
793.605713	841.000000
793.641785	849.000000
793.677795	851.000000
793.713867	849.000000
793.749878	866.000000
793.785950	862.000000
793.822021	876.000000
793.858032	863.000000
793.894104	883.000000
793.930176	869.000000
793.966187	868.000000
794.002258	843.000000
794.038269	864.000000
794.074280	863.000000
794.110352	897.000000
794.146423	879.000000
794.182373	868.000000
794.218445	871.000000
794.254517	853.000000
794.290466	858.000000
794.326538	849.000000
794.362549	853.000000
794.398560	860.000000
794.434631	867.000000
794.470581	846.000000
794.506653	832.000000
794.542664	830.000000
794.578674	847.000000
794.614685	845.000000
794.650757	838.000000
794.686707	853.000000
794.722778	841.000000
794.758789	841.000000
794.794739	846.000000
794.830811	862.000000
794.866821	895.000000
794.902771	892.000000
794.938843	892.000000
794.974792	880.000000
795.010803	889.000000
795.046814	890.000000
795.082825	871.000000
795.118835	901.000000
795.154846	885.000000
795.190796	881.000000
795.226807	864.000000
795.262817	865.000000
795.298767	868.000000
795.334778	887.000000
795.370850	878.000000
795.406799	876.000000
795.442810	843.000000
795.478821	846.000000
795.514709	855.000000
795.550720	870.000000
795.586670	866.000000
795.622681	874.000000
795.658691	863.000000
795.694641	866.000000
795.730652	860.000000
795.766663	861.000000
795.802551	877.000000
795.838562	879.000000
795.874573	869.000000
795.910522	877.000000
795.946472	861.000000
795.982483	860.000000
796.018433	857.000000
796.054382	864.000000
796.090393	871.000000
796.126282	867.000000
796.162292	844.000000
796.198242	843.000000
796.234192	849.000000
796.270203	829.000000
796.306091	837.000000
796.342041	857.000000
796.378052	851.000000
796.413940	837.000000
796.449951	857.000000
796.485901	841.000000
796.521790	844.000000
796.557800	863.000000
796.593689	865.000000
796.629639	863.000000
796.665649	865.000000
796.701599	851.000000
796.737488	867.000000
796.773437	856.000000
796.809387	855.000000
796.845337	873.000000
796.881287	860.000000
796.917175	836.000000
796.953125	845.000000
796.989075	853.000000
797.024963	843.000000
797.060913	855.000000
797.096863	839.000000
797.132751	850.000000
797.168701	815.000000
797.204590	833.000000
797.240540	823.000000
797.276489	846.000000
797.312439	842.000000
797.348328	837.000000
797.384277	839.000000
797.420166	836.000000
797.456055	824.000000
797.492004	830.000000
797.527893	829.000000
797.563843	833.000000
797.599731	835.000000
797.635620	827.000000
797.671570	834.000000
797.707520	821.000000
797.743347	837.000000
797.779297	830.000000
797.815125	853.000000
797.851074	832.000000
797.887024	828.000000
797.922913	809.000000
797.958801	820.000000
797.994690	808.000000
798.030579	835.000000
798.066467	816.000000
798.102356	805.000000
798.138245	809.000000
798.174133	806.000000
798.210083	796.000000
798.245911	810.000000
798.281799	817.000000
798.317749	822.000000
798.353577	824.000000
798.389465	809.000000
798.425293	809.000000
798.461243	805.000000
798.497131	813.000000
798.532959	807.000000
798.568848	822.000000
798.604736	814.000000
798.640564	798.000000
798.676453	795.000000
798.712402	791.000000
798.748230	795.000000
798.784119	831.000000
798.820007	809.000000
798.855835	808.000000
798.891724	803.000000
798.927551	805.000000
798.963379	795.000000
798.999268	800.000000
799.035095	804.000000
799.070984	788.000000
799.106873	762.000000
799.142700	774.000000
799.178528	772.000000
799.214417	761.000000
799.250244	773.000000
799.286133	779.000000
799.321960	777.000000
799.357788	778.000000
799.393677	775.000000
799.429504	780.000000
799.465332	780.000000
799.501221	785.000000
799.537048	773.000000
799.572876	773.000000
799.608704	775.000000
799.644531	777.000000
799.680359	778.000000
799.716248	796.000000
799.752014	790.000000
799.787903	790.000000
799.823730	781.000000
799.859558	782.000000
799.895386	781.000000
799.931213	773.000000
799.967041	777.000000
800.002869	778.000000
800.038696	773.000000
800.074463	761.000000
800.110352	768.000000
800.146179	766.000000
800.181946	768.000000
800.217773	761.000000
800.253540	765.000000
800.289429	757.000000
800.325256	756.000000
800.361023	762.000000
800.396851	751.000000
800.432678	763.000000
800.468445	765.000000
800.504272	762.000000
800.540100	754.000000
800.575867	749.000000
800.611694	756.000000
800.647461	767.000000
800.683289	767.000000
800.719116	759.000000
800.754883	764.000000
800.790649	749.000000
800.826477	743.000000
800.862244	750.000000
800.898071	740.000000
800.933838	743.000000
800.969604	740.000000
801.005432	740.000000
801.041199	738.000000
801.076965	729.000000
801.112793	730.000000
801.148560	714.000000
801.184326	733.000000
801.220154	735.000000
801.255859	723.000000
801.291687	712.000000
801.327454	710.000000
801.363281	721.000000
801.398987	722.000000
801.434814	723.000000
801.470520	730.000000
801.506287	706.000000
801.542114	706.000000
801.577820	701.000000
801.613647	712.000000
801.649414	706.000000
801.685120	703.000000
801.720886	722.000000
801.756714	709.000000
801.792419	697.000000
801.828186	686.000000
801.863892	693.000000
801.899719	684.000000
801.935486	681.000000
801.971252	702.000000
802.006958	683.000000
802.042725	680.000000
802.078430	682.000000
802.114197	686.000000
802.149963	702.000000
802.185669	677.000000
802.221436	681.000000
802.257202	679.000000
802.292908	678.000000
802.328674	687.000000
802.364441	692.000000
802.400146	679.000000
802.435913	701.000000
802.471558	683.000000
802.507324	673.000000
802.543091	666.000000
802.578796	687.000000
802.614502	699.000000
802.650269	700.000000
802.685974	677.000000
802.721741	684.000000
802.757446	685.000000
802.793152	685.000000
802.828918	689.000000
802.864624	690.000000
802.900330	687.000000
802.936035	675.000000
802.971802	685.000000
803.007446	671.000000
803.043213	655.000000
803.078857	675.000000
803.114624	653.000000
803.150330	671.000000
803.185974	665.000000
803.221741	663.000000
803.257446	665.000000
803.293152	669.000000
803.328857	667.000000
803.364563	670.000000
803.400208	669.000000
803.435974	668.000000
803.471680	655.000000
803.507324	648.000000
803.543030	649.000000
803.578735	660.000000
803.614441	668.000000
803.650146	671.000000
803.685791	649.000000
803.721497	651.000000
803.757202	657.000000
803.792847	654.000000
803.828552	637.000000
803.864258	650.000000
803.899902	640.000000
803.935608	631.000000
803.971313	634.000000
804.006958	635.000000
804.042664	639.000000
804.078308	642.000000
804.113953	626.000000
804.149658	634.000000
804.185364	625.000000
804.221008	637.000000
804.256714	633.000000
804.292297	622.000000
804.328003	618.000000
804.363708	617.000000
804.399292	619.000000
804.434998	615.000000
804.470703	605.000000
804.506287	616.000000
804.541992	609.000000
804.577637	618.000000
804.613281	613.000000
804.648926	601.000000
804.684570	604.000000
804.720215	593.000000
804.755920	595.000000
804.791565	594.000000
804.827209	600.000000
804.862854	599.000000
804.898437	607.000000
804.934143	593.000000
804.969788	598.000000
805.005371	602.000000
805.041077	592.000000
805.076721	603.000000
805.112305	587.000000
805.147949	589.000000
805.183655	578.000000
805.219238	593.000000
805.254883	586.000000
805.290466	587.000000
805.326111	588.000000
805.361755	576.000000
805.397400	581.000000
805.432983	586.000000
805.468628	573.000000
805.504211	582.000000
805.539856	584.000000
805.575500	581.000000
805.611084	571.000000
805.646729	573.000000
805.682373	568.000000
805.717957	578.000000
805.753601	587.000000
805.789246	567.000000
805.824768	577.000000
805.860413	581.000000
805.895996	569.000000
805.931641	561.000000
805.967224	570.000000
806.002869	578.000000
806.038452	567.000000
806.074036	579.000000
806.109619	573.000000
806.145264	559.000000
806.180847	567.000000
806.216431	573.000000
806.252014	566.000000
806.287659	565.000000
806.323181	578.000000
806.358826	580.000000
806.394409	556.000000
806.429993	560.000000
806.465576	558.000000
806.501160	553.000000
806.536743	544.000000
806.572327	540.000000
806.607910	553.000000
806.643494	547.000000
806.679077	551.000000
806.714661	551.000000
806.750244	547.000000
806.785828	536.000000
806.821350	541.000000
806.856934	537.000000
806.892517	535.000000
806.928101	532.000000
806.963684	540.000000
806.999268	532.000000
807.034790	525.000000
807.070374	529.000000
807.105896	527.000000
807.141479	525.000000
807.177063	533.000000
807.212585	517.000000
807.248169	525.000000
807.283752	517.000000
807.319275	512.000000
807.354858	521.000000
807.390381	514.000000
807.425903	512.000000
807.461487	513.000000
807.497070	509.000000
807.532593	509.000000
807.568115	507.000000
807.603699	504.000000
807.639221	498.000000
807.674744	503.000000
807.710266	513.000000
807.745850	498.000000
807.781372	512.000000
807.816895	501.000000
807.852417	500.000000
807.888000	493.000000
807.923523	494.000000
807.959045	499.000000
807.994629	488.000000
808.030090	491.000000
808.065613	499.000000
808.101135	503.000000
808.136658	496.000000
808.172241	490.000000
808.207764	500.000000
808.243225	493.000000
808.278809	487.000000
808.314270	491.000000
808.349792	486.000000
808.385315	483.000000
808.420837	485.000000
808.456360	492.000000
808.491882	491.000000
808.527344	488.000000
808.562866	490.000000
808.598389	478.000000
808.633850	482.000000
808.669434	470.000000
808.704895	479.000000
808.740417	481.000000
808.775940	478.000000
808.811462	474.000000
808.846924	476.000000
808.882385	470.000000
808.917847	466.000000
808.953369	472.000000
808.988892	471.000000
809.024353	476.000000
809.059875	476.000000
809.095398	474.000000
809.130798	461.000000
809.166321	466.000000
809.201843	462.000000
809.237305	461.000000
809.272766	468.000000
809.308228	463.000000
809.343750	463.000000
809.379211	464.000000
809.414734	469.000000
809.450134	468.000000
809.485657	458.000000
809.521118	457.000000
809.556580	446.000000
809.592102	457.000000
809.627502	455.000000
809.663025	444.000000
809.698486	444.000000
809.733887	446.000000
809.769409	449.000000
809.804871	436.000000
809.840271	443.000000
809.875793	440.000000
809.911194	445.000000
809.946655	438.000000
809.982178	436.000000
810.017639	436.000000
810.053040	430.000000
810.088501	435.000000
810.123901	430.000000
810.159424	430.000000
810.194885	430.000000
810.230286	430.000000
810.265747	423.000000
810.301208	428.000000
810.336609	426.000000
810.372070	425.000000
810.407532	416.000000
810.442932	422.000000
810.478394	430.000000
810.513794	421.000000
810.549255	418.000000
810.584717	417.000000
810.620117	405.000000
810.655518	423.000000
810.690979	415.000000
810.726379	411.000000
810.761841	404.000000
810.797302	408.000000
810.832642	402.000000
810.868103	405.000000
810.903564	400.000000
810.938904	413.000000
810.974365	399.000000
811.009827	394.000000
811.045166	398.000000
811.080627	395.000000
811.115967	386.000000
811.151428	395.000000
811.186829	394.000000
811.222229	395.000000
811.257629	397.000000
811.293091	393.000000
811.328430	396.000000
811.363892	392.000000
811.399292	398.000000
811.434631	384.000000
811.470093	390.000000
811.505493	381.000000
811.540833	380.000000
811.576294	382.000000
811.611694	389.000000
811.647034	372.000000
811.682434	384.000000
811.717773	384.000000
811.753235	386.000000
811.788635	372.000000
811.823975	382.000000
811.859375	392.000000
811.894775	381.000000
811.930115	379.000000
811.965515	375.000000
812.000916	365.000000
812.036255	371.000000
812.071655	382.000000
812.106995	377.000000
812.142395	369.000000
812.177795	382.000000
812.213196	373.000000
812.248474	383.000000
812.283875	371.000000
812.319214	369.000000
812.354614	367.000000
812.390015	370.000000
812.425293	374.000000
812.460693	366.000000
812.496094	369.000000
812.531433	357.000000
812.566772	358.000000
812.602173	362.000000
812.637451	358.000000
812.672852	354.000000
812.708191	363.000000
812.743530	351.000000
812.778931	349.000000
812.814270	350.000000
812.849609	355.000000
812.884949	349.000000
812.920227	351.000000
812.955627	349.000000
812.990967	348.000000
813.026306	348.000000
813.061646	337.000000
813.096985	333.000000
813.132324	333.000000
813.167664	335.000000
813.203003	339.000000
813.238281	326.000000
813.273682	328.000000
813.308960	321.000000
813.344299	333.000000
813.379639	333.000000
813.414978	337.000000
813.450256	327.000000
813.485596	333.000000
813.520874	327.000000
813.556213	325.000000
813.591614	324.000000
813.626831	324.000000
813.662170	321.000000
813.697510	336.000000
813.732788	325.000000
813.768127	328.000000
813.803467	321.000000
813.838745	319.000000
813.874084	317.000000
813.909363	319.000000
813.944641	323.000000
813.979980	316.000000
814.015320	313.000000
814.050598	315.000000
814.085876	320.000000
814.121155	309.000000
814.156494	313.000000
814.191772	311.000000
814.227051	307.000000
814.262390	313.000000
814.297668	312.000000
814.332947	308.000000
814.368225	305.000000
814.403564	303.000000
814.438782	299.000000
814.474121	300.000000
814.509338	300.000000
814.544617	308.000000
814.579956	300.000000
814.615173	308.000000
814.650513	301.000000
814.685791	296.000000
814.721008	308.000000
814.756348	301.000000
814.791626	297.000000
814.826843	306.000000
814.862122	293.000000
814.897400	293.000000
814.932678	300.000000
814.967957	293.000000
815.003235	298.000000
815.038452	295.000000
815.073730	288.000000
815.108948	293.000000
815.144226	300.000000
815.179504	301.000000
815.214722	285.000000
815.250000	286.000000
815.285278	295.000000
815.320496	293.000000
815.355774	287.000000
815.391052	289.000000
815.426270	285.000000
815.461487	290.000000
815.496765	277.000000
815.531982	282.000000
815.567261	283.000000
815.602539	286.000000
815.637695	282.000000
815.672974	285.000000
815.708191	290.000000
815.743408	288.000000
815.778687	278.000000
815.813904	290.000000
815.849121	273.000000
815.884399	274.000000
815.919556	273.000000
815.954834	279.000000
815.990051	282.000000
816.025269	285.000000
816.060486	273.000000
816.095703	280.000000
816.130920	274.000000
816.166199	269.000000
816.201416	269.000000
816.236572	275.000000
816.271851	273.000000
816.307007	274.000000
816.342224	263.000000
816.377441	266.000000
816.412659	260.000000
816.447876	270.000000
816.483093	265.000000
816.518250	268.000000
816.553467	257.000000
816.588745	268.000000
816.623901	263.000000
816.659119	257.000000
816.694275	263.000000
816.729492	261.000000
816.764709	286.000000
816.799927	258.000000
816.835083	263.000000
816.870300	256.000000
816.905457	260.000000
816.940674	261.000000
816.975830	256.000000
817.010986	246.000000
817.046204	256.000000
817.081421	248.000000
817.116577	251.000000
817.151733	257.000000
817.186951	258.000000
817.222107	250.000000
817.257324	257.000000
817.292419	252.000000
817.327637	244.000000
817.362854	248.000000
817.398010	245.000000
817.433167	248.000000
817.468323	249.000000
817.503479	241.000000
817.538635	257.000000
817.573853	246.000000
817.608948	247.000000
817.644165	243.000000
817.679321	246.000000
817.714478	235.000000
817.749634	249.000000
817.784790	250.000000
817.819946	245.000000
817.855103	236.000000
817.890198	246.000000
817.925415	233.000000
817.960571	243.000000
817.995667	241.000000
818.030823	243.000000
818.066040	234.000000
818.101135	239.000000
818.136292	238.000000
818.171448	238.000000
818.206543	237.000000
818.241699	237.000000
818.276855	241.000000
818.311951	240.000000
818.347107	233.000000
818.382263	239.000000
818.417358	246.000000
818.452515	239.000000
818.487610	241.000000
818.522766	230.000000
818.557922	234.000000
818.593018	233.000000
818.628113	235.000000
818.663269	226.000000
818.698364	234.000000
818.733521	229.000000
818.768677	230.000000
818.803711	226.000000
818.838867	228.000000
818.874023	224.000000
818.909058	225.000000
818.944214	221.000000
818.979370	226.000000
819.014404	225.000000
819.049561	224.000000
819.084595	225.000000
819.119751	224.000000
819.154846	228.000000
819.189941	227.000000
819.225037	222.000000
819.260193	217.000000
819.295227	215.000000
819.330322	216.000000
819.365479	218.000000
819.400513	251.000000
819.435608	213.000000
819.470764	216.000000
819.505798	213.000000
819.540894	218.000000
819.575989	219.000000
819.611084	223.000000
819.646179	222.000000
819.681213	223.000000
819.716309	218.000000
819.751404	215.000000
819.786438	220.000000
819.821533	213.000000
819.856628	215.000000
819.891663	217.000000
819.926758	223.000000
819.961853	220.000000
819.996887	212.000000
820.031982	213.000000
820.067017	214.000000
820.102112	245.000000
820.137207	212.000000
820.172302	221.000000
820.207275	210.000000
820.242371	202.000000
820.277405	212.000000
820.312500	209.000000
820.347534	212.000000
820.382568	215.000000
820.417664	211.000000
820.452759	205.000000
820.487732	207.000000
820.522827	206.000000
820.557861	205.000000
820.592896	207.000000
820.627930	207.000000
820.662964	202.000000
820.698059	212.000000
820.733093	208.000000
820.768127	207.000000
820.803162	206.000000
820.838196	209.000000
820.873230	207.000000
820.908264	208.000000
820.943298	205.000000
820.978333	206.000000
821.013367	209.000000
821.048401	213.000000
821.083435	209.000000
821.118469	199.000000
821.153503	213.000000
821.188477	209.000000
821.223511	203.000000
821.258484	209.000000
821.293579	208.000000
821.328613	202.000000
821.363647	208.000000
821.398621	200.000000
821.433655	207.000000
821.468628	213.000000
821.503662	205.000000
821.538696	209.000000
821.573669	199.000000
821.608704	206.000000
821.643677	200.000000
821.678650	206.000000
821.713684	208.000000
821.748718	197.000000
821.783691	207.000000
821.818726	200.000000
821.853638	211.000000
821.888672	205.000000
821.923706	202.000000
821.958618	200.000000
821.993652	204.000000
822.028687	205.000000
822.063599	210.000000
822.098633	206.000000
822.133667	199.000000
822.168579	200.000000
822.203613	208.000000
822.238586	198.000000
822.273560	207.000000
822.308533	198.000000
822.343567	203.000000
822.378479	199.000000
822.413452	204.000000
822.448425	197.000000
822.483398	208.000000
822.518372	205.000000
822.553345	197.000000
822.588318	210.000000
822.623291	206.000000
822.658203	201.000000
822.693237	200.000000
822.728210	198.000000
822.763123	200.000000
822.798096	199.000000
822.833069	200.000000
822.867981	199.000000
822.902954	201.000000
822.937927	203.000000
822.972900	207.000000
823.007874	194.000000
823.042725	204.000000
823.077698	209.000000
823.112671	200.000000
823.147583	201.000000
823.182556	202.000000
823.217529	205.000000
823.252441	199.000000
823.287415	207.000000
823.322388	204.000000
823.357239	203.000000
823.392212	204.000000
823.427185	204.000000
823.462097	195.000000
823.497009	202.000000
823.531982	194.000000
823.566895	198.000000
823.601807	193.000000
823.636719	201.000000
823.671631	202.000000
823.706604	196.000000
823.741455	199.000000
823.776428	199.000000
823.811340	199.000000
823.846252	211.000000
823.881165	206.000000
823.916138	202.000000
823.950989	205.000000
823.985901	200.000000
824.020813	202.000000
824.055725	200.000000
824.090637	199.000000
824.125610	203.000000
824.160461	203.000000
824.195374	202.000000
824.230225	198.000000
824.265198	194.000000
824.300110	197.000000
824.334961	204.000000
824.369873	196.000000
824.404785	202.000000
824.439636	206.000000
824.474548	193.000000
824.509460	193.000000
824.544312	200.000000
824.579224	202.000000
824.614075	201.000000
824.648987	197.000000
824.683899	193.000000
824.718811	195.000000
824.753662	197.000000
824.788574	201.000000
824.823364	197.000000
824.858276	194.000000
824.893188	201.000000
824.928040	202.000000
824.962952	194.000000
824.997803	203.000000
825.032654	197.000000
825.067566	199.000000
825.102417	198.000000
825.137268	196.000000
825.172119	193.000000
825.206970	196.000000
825.241882	202.000000
825.276733	190.000000
825.311646	198.000000
825.346436	192.000000
825.381348	190.000000
825.416138	201.000000
825.450989	194.000000
825.485901	194.000000
825.520691	189.000000
825.555542	195.000000
825.590454	194.000000
825.625244	187.000000
825.660095	202.000000
825.695007	200.000000
825.729797	197.000000
825.764648	192.000000
825.799438	196.000000
825.834290	194.000000
825.869202	189.000000
825.903992	198.000000
825.938843	193.000000
825.973694	186.000000
826.008484	199.000000
826.043335	187.000000
826.078186	188.000000
826.112976	195.000000
826.147827	197.000000
826.182678	199.000000
826.217468	184.000000
826.252319	196.000000
826.287109	190.000000
826.321899	193.000000
826.356750	193.000000
826.391541	186.000000
826.426392	199.000000
826.461182	195.000000
826.495972	190.000000
826.530823	183.000000
826.565613	198.000000
826.600403	186.000000
826.635254	193.000000
826.670044	185.000000
826.704834	185.000000
826.739685	186.000000
826.774475	198.000000
826.809265	191.000000
826.844055	192.000000
826.878906	198.000000
826.913635	195.000000
826.948425	190.000000
826.983215	198.000000
827.018005	196.000000
827.052856	196.000000
827.087585	197.000000
827.122375	186.000000
827.157227	191.000000
827.191956	203.000000
827.226746	189.000000
827.261536	191.000000
827.296265	189.000000
827.331116	192.000000
827.365906	197.000000
827.400635	189.000000
827.435425	188.000000
827.470215	195.000000
827.504944	192.000000
827.539734	197.000000
827.574463	189.000000
827.609253	198.000000
827.644043	193.000000
827.678772	195.000000
827.713562	189.000000
827.748352	188.000000
827.783081	187.000000
827.817871	194.000000
827.852600	188.000000
827.887329	185.000000
827.922119	186.000000
827.956848	191.000000
827.991638	198.000000
828.026367	191.000000
828.061157	193.000000
828.095886	189.000000
828.130615	206.000000
828.165344	189.000000
828.200073	193.000000
828.234863	190.000000
828.269592	195.000000
828.304321	193.000000
828.339111	192.000000
828.373779	191.000000
828.408569	197.000000
828.443298	199.000000
828.477966	189.000000
828.512756	190.000000
828.547424	187.000000
828.582214	195.000000
828.616943	189.000000
828.651672	192.000000
828.686340	195.000000
828.721130	192.000000
828.755798	193.000000
828.790527	193.000000
828.825256	190.000000
828.859924	194.000000
828.894714	195.000000
828.929443	199.000000
828.964111	190.000000
828.998840	194.000000
829.033569	188.000000
829.068237	193.000000
829.102966	190.000000
829.137634	190.000000
829.172363	194.000000
829.207092	192.000000
829.241821	185.000000
829.276489	191.000000
829.311157	190.000000
829.345825	191.000000
829.380554	194.000000
829.415283	189.000000
829.449951	184.000000
829.484619	198.000000
829.519348	197.000000
829.554016	191.000000
829.588745	189.000000
829.623413	189.000000
829.658081	196.000000
829.692749	188.000000
829.727417	198.000000
829.762146	192.000000
829.796814	189.000000
829.831482	190.000000
829.866150	187.000000
829.900879	189.000000
829.935486	192.000000
829.970154	190.000000
830.004883	202.000000
830.039490	188.000000
830.074219	188.000000
830.108887	192.000000
830.143494	195.000000
830.178223	186.000000
830.212891	193.000000
830.247498	190.000000
830.282166	199.000000
830.316772	192.000000
830.351501	191.000000
830.386169	188.000000
830.420776	191.000000
830.455444	192.000000
830.490112	188.000000
830.524719	184.000000
830.559387	195.000000
830.594055	192.000000
830.628662	194.000000
830.663330	190.000000
830.697998	199.000000
830.732605	193.000000
830.767273	193.000000
830.801941	191.000000
830.836487	203.000000
830.871155	195.000000
830.905762	192.000000
830.940430	187.000000
830.975098	189.000000
831.009644	189.000000
831.044312	199.000000
831.078979	196.000000
831.113525	187.000000
831.148193	193.000000
831.182861	195.000000
831.217407	195.000000
831.252075	203.000000
831.286621	192.000000
831.321289	185.000000
831.355896	192.000000
831.390564	197.000000
831.425110	194.000000
831.459778	195.000000
831.494324	203.000000
831.528931	194.000000
831.563599	196.000000
831.598145	185.000000
831.632751	190.000000
831.667419	189.000000
831.701965	194.000000
831.736572	190.000000
831.771179	192.000000
831.805786	191.000000
831.840393	201.000000
831.874939	184.000000
831.909546	198.000000
831.944153	184.000000
831.978760	191.000000
832.013306	186.000000
832.047913	199.000000
832.082458	200.000000
832.117065	190.000000
832.151672	196.000000
832.186218	197.000000
832.220825	193.000000
832.255432	183.000000
832.289978	189.000000
832.324585	195.000000
832.359192	190.000000
832.393677	193.000000
832.428284	193.000000
832.462830	188.000000
832.497437	193.000000
832.531982	196.000000
832.566589	190.000000
832.601135	195.000000
832.635681	189.000000
832.670227	194.000000
832.704773	199.000000
832.739380	193.000000
832.773926	189.000000
832.808472	191.000000
832.843079	197.000000
832.877563	195.000000
832.912170	189.000000
832.946716	188.000000
832.981201	193.000000
833.015808	191.000000
833.050293	193.000000
833.084839	188.000000
833.119446	190.000000
833.153992	193.000000
833.188477	190.000000
833.223022	184.000000
833.257568	195.000000
833.292114	197.000000
833.326660	203.000000
833.361145	188.000000
833.395691	181.000000
833.430237	188.000000
833.464783	193.000000
833.499329	185.000000
833.533875	192.000000
833.568359	193.000000
833.602905	199.000000
833.637390	196.000000
833.671875	191.000000
833.706421	187.000000
833.740906	191.000000
833.775452	183.000000
833.809998	192.000000
833.844482	197.000000
833.879028	193.000000
833.913513	191.000000
833.947998	197.000000
833.982544	193.000000
834.017090	189.000000
834.051514	183.000000
834.086060	193.000000
834.120544	189.000000
834.155029	198.000000
834.189575	191.000000
834.223999	197.000000
834.258545	195.000000
834.293030	194.000000
834.327515	191.000000
834.362000	188.000000
834.396545	195.000000
834.430969	190.000000
834.465454	199.000000
834.500000	187.000000
834.534424	195.000000
834.568970	187.000000
834.603455	186.000000
834.637878	186.000000
834.672363	197.000000
834.706909	191.000000
834.741333	192.000000
834.775818	189.000000
834.810242	190.000000
834.844727	187.000000
834.879211	191.000000
834.913635	188.000000
834.948181	191.000000
834.982666	193.000000
835.017090	192.000000
835.051575	186.000000
835.086060	189.000000
835.120483	196.000000
835.154907	193.000000
835.189331	189.000000
835.223816	197.000000
835.258301	187.000000
835.292786	191.000000
835.327209	193.000000
835.361694	190.000000
835.396057	191.000000
835.430542	195.000000
835.465027	190.000000
835.499390	187.000000
835.533875	218.000000
835.568359	190.000000
835.602722	182.000000
835.637207	194.000000
835.671692	185.000000
835.706055	210.000000
835.740540	199.000000
835.774902	191.000000
835.809387	195.000000
835.843811	188.000000
835.878235	197.000000
835.912659	187.000000
835.947083	189.000000
835.981506	193.000000
836.015930	187.000000
836.050354	198.000000
836.084778	196.000000
836.119202	193.000000
836.153625	209.000000
836.187988	187.000000
836.222473	194.000000
836.256897	194.000000
836.291260	192.000000
836.325684	194.000000
836.360046	193.000000
836.394470	187.000000
836.428894	199.000000
836.463318	192.000000
836.497681	194.000000
836.532104	197.000000
836.566467	194.000000
836.600891	189.000000
836.635315	196.000000
836.669678	191.000000
836.704102	192.000000
836.738525	195.000000
836.772888	187.000000
836.807251	189.000000
836.841675	197.000000
836.876038	190.000000
836.910461	191.000000
836.944763	197.000000
836.979187	193.000000
837.013611	195.000000
837.047974	188.000000
837.082336	201.000000
837.116699	192.000000
837.151062	188.000000
837.185486	190.000000
837.219849	192.000000
837.254211	195.000000
837.288574	192.000000
837.322937	186.000000
837.357300	187.000000
837.391663	201.000000
837.426086	196.000000
837.460388	191.000000
837.494751	198.000000
837.529114	187.000000
837.563477	200.000000
837.597839	193.000000
837.632141	192.000000
837.666565	189.000000
837.700928	192.000000
837.735229	192.000000
837.769592	197.000000
837.803955	193.000000
837.838257	190.000000
837.872620	186.000000
837.906982	199.000000
837.941284	188.000000
837.975647	195.000000
838.010010	196.000000
838.044312	189.000000
838.078674	187.000000
838.112976	196.000000
838.147339	189.000000
838.181702	195.000000
838.216003	194.000000
838.250366	194.000000
838.284668	196.000000
838.318970	186.000000
838.353333	191.000000
838.387634	190.000000
838.421936	192.000000
838.456299	193.000000
838.490601	196.000000
838.524902	197.000000
838.559265	194.000000
838.593567	197.000000
838.627869	192.000000
838.662170	194.000000
838.696472	187.000000
838.730774	190.000000
838.765137	198.000000
838.799377	182.000000
838.833740	197.000000
838.868042	195.000000
838.902283	185.000000
838.936646	193.000000
838.970947	194.000000
839.005188	196.000000
839.039551	187.000000
839.073792	192.000000
839.108093	187.000000
839.142395	196.000000
839.176697	186.000000
839.210937	189.000000
839.245300	199.000000
839.279541	184.000000
839.313843	190.000000
839.348145	195.000000
839.382385	194.000000
839.416687	196.000000
839.450989	197.000000
839.485229	191.000000
839.519531	192.000000
839.553833	197.000000
839.588013	193.000000
839.622314	194.000000
839.656555	195.000000
839.690857	187.000000
839.725159	187.000000
839.759460	190.000000
839.793640	191.000000
839.827942	189.000000
839.862183	189.000000
839.896423	192.000000
839.930725	205.000000
839.964966	201.000000
839.999207	199.000000
840.033508	199.000000
840.067688	192.000000
840.101990	198.000000
840.136230	193.000000
840.170471	202.000000
840.204712	187.000000
840.238953	194.000000
840.273193	193.000000
840.307434	195.000000
840.341736	188.000000
840.375916	187.000000
840.410217	189.000000
840.444397	198.000000
840.478638	193.000000
840.512878	195.000000
840.547119	189.000000
840.581360	198.000000
840.615601	194.000000
840.649780	205.000000
840.684021	189.000000
840.718262	195.000000
840.752441	197.000000
840.786682	193.000000
840.820862	192.000000
840.855103	200.000000
840.889343	192.000000
840.923584	197.000000
840.957764	194.000000
840.992004	192.000000
841.026184	200.000000
841.060425	190.000000
841.094666	187.000000
841.128845	194.000000
841.163025	195.000000
841.197266	197.000000
841.231445	190.000000
841.265686	191.000000
841.299866	193.000000
841.334045	202.000000
841.368286	191.000000
841.402405	197.000000
841.436646	195.000000
841.470825	190.000000
841.505005	192.000000
841.539185	188.000000
841.573425	191.000000
841.607544	189.000000
841.641785	193.000000
841.675964	189.000000
841.710144	195.000000
841.744324	184.000000
841.778503	191.000000
841.812683	184.000000
841.846863	198.000000
841.881042	196.000000
841.915222	191.000000
841.949402	200.000000
841.983521	191.000000
842.017700	191.000000
842.051880	191.000000
842.086060	193.000000
842.120239	197.000000
842.154419	186.000000
842.188538	192.000000
842.222717	189.000000
842.256897	195.000000
842.291016	188.000000
842.325195	198.000000
842.359375	199.000000
842.393494	195.000000
842.427673	192.000000
842.461853	191.000000
842.495911	195.000000
842.530090	196.000000
842.564209	190.000000
842.598389	193.000000
842.632568	191.000000
842.666626	201.000000
842.700806	192.000000
842.734985	188.000000
842.769043	192.000000
842.803223	188.000000
842.837402	192.000000
842.871460	191.000000
842.905640	201.000000
842.939697	197.000000
842.973877	194.000000
843.007996	198.000000
843.042175	200.000000
843.076233	186.000000
843.110413	195.000000
843.144470	198.000000
843.178589	198.000000
843.212769	188.000000
843.246826	199.000000
843.280945	186.000000
843.315125	194.000000
843.349182	190.000000
843.383301	198.000000
843.417419	201.000000
843.451538	195.000000
843.485657	188.000000
843.519714	193.000000
843.553833	192.000000
843.587952	192.000000
843.622070	185.000000
843.656128	192.000000
843.690247	185.000000
843.724304	193.000000
843.758423	194.000000
843.792542	190.000000
843.826599	188.000000
843.860718	195.000000
843.894836	184.000000
843.928894	190.000000
843.963013	193.000000
843.997070	193.000000
844.031128	184.000000
844.065247	198.000000
844.099304	193.000000
844.133362	197.000000
844.167480	195.000000
844.201599	196.000000
844.235596	199.000000
844.269714	196.000000
844.303711	194.000000
844.337830	186.000000
844.371948	198.000000
844.405945	190.000000
844.440063	188.000000
844.474121	204.000000
844.508118	191.000000
844.542236	189.000000
844.576294	194.000000
844.610352	186.000000
844.644409	192.000000
844.678406	187.000000
844.712524	195.000000
844.746582	195.000000
844.780640	192.000000
844.814636	186.000000
844.848755	202.000000
844.882751	189.000000
844.916809	197.000000
844.950867	194.000000
844.984863	196.000000
845.018921	187.000000
845.052979	191.000000
845.086975	191.000000
845.121033	187.000000
845.155090	190.000000
845.189087	201.000000
845.223145	186.000000
845.257141	196.000000
845.291199	194.000000
845.325256	196.000000
845.359253	194.000000
845.393250	206.000000
845.427307	191.000000
845.461304	197.000000
845.495361	194.000000
845.529358	203.000000
845.563354	191.000000
845.597412	191.000000
845.631409	202.000000
845.665405	200.000000
845.699463	200.000000
845.733459	194.000000
845.767456	203.000000
845.801453	191.000000
845.835449	195.000000
845.869446	199.000000
845.903503	196.000000
845.937439	187.000000
845.971497	198.000000
846.005493	189.000000
846.039429	197.000000
846.073486	200.000000
846.107483	190.000000
846.141418	187.000000
846.175476	195.000000
846.209473	198.000000
846.243408	190.000000
846.277405	191.000000
846.311401	189.000000
846.345337	189.000000
846.379395	197.000000
846.413330	192.000000
846.447327	200.000000
846.481323	186.000000
846.515259	192.000000
846.549255	192.000000
846.583252	195.000000
846.617187	184.000000
846.651184	195.000000
846.685120	188.000000
846.719055	200.000000
846.753052	193.000000
846.786987	194.000000
846.820984	189.000000
846.854980	201.000000
846.888916	184.000000
846.922852	193.000000
846.956848	200.000000
846.990723	191.000000
847.024719	195.000000
847.058716	194.000000
847.092590	201.000000
847.126587	195.000000
847.160522	190.000000
847.194458	194.000000
847.228455	193.000000
847.262390	186.000000
847.296265	192.000000
847.330261	199.000000
847.364136	191.000000
847.398132	186.000000
847.432068	194.000000
847.466003	189.000000
847.499939	195.000000
847.533875	190.000000
847.567749	189.000000
847.601746	188.000000
847.635681	192.000000
847.669556	185.000000
847.703491	201.000000
847.737427	205.000000
847.771301	185.000000
847.805237	196.000000
847.839233	194.000000
847.873108	192.000000
847.907043	189.000000
847.940918	201.000000
847.974854	193.000000
848.008789	191.000000
848.042664	194.000000
848.076538	191.000000
848.110474	193.000000
848.144348	193.000000
848.178284	186.000000
848.212219	192.000000
848.246094	193.000000
848.279968	188.000000
848.313904	196.000000
848.347778	190.000000
848.381653	195.000000
848.415588	192.000000
848.449463	191.000000
848.483337	193.000000
848.517212	201.000000
848.551086	198.000000
848.585022	190.000000
848.618835	204.000000
848.652771	191.000000
848.686646	188.000000
848.720520	197.000000
848.754395	194.000000
848.788330	194.000000
848.822144	193.000000
848.856018	193.000000
848.889954	198.000000
848.923767	189.000000
848.957642	190.000000
848.991577	195.000000
849.025391	193.000000
849.059265	194.000000
849.093079	189.000000
849.126953	188.000000
849.160828	197.000000
849.194641	191.000000
849.228577	190.000000
849.262451	188.000000
849.296265	187.000000
849.330139	187.000000
849.364014	195.000000
849.397827	191.000000
849.431702	191.000000
849.465515	198.000000
849.499329	184.000000
849.533203	187.000000
849.567078	189.000000
849.600891	191.000000
849.634766	194.000000
849.668518	195.000000
849.702393	191.000000
849.736267	190.000000
849.770020	203.000000
849.803894	194.000000
849.837769	195.000000
849.871521	190.000000
849.905396	196.000000
849.939270	191.000000
849.973022	190.000000
850.006897	195.000000
850.040710	198.000000
850.074524	196.000000
850.108337	190.000000
850.142151	194.000000
850.175964	199.000000
850.209778	191.000000
850.243530	183.000000
850.277405	198.000000
850.311218	191.000000
850.344971	193.000000
850.378845	201.000000
850.412659	190.000000
850.446411	199.000000
850.480225	196.000000
850.514038	193.000000
850.547791	197.000000
850.581665	192.000000
850.615417	189.000000
850.649231	192.000000
850.683044	191.000000
850.716858	189.000000
850.750610	191.000000
850.784424	194.000000
850.818176	190.000000
850.851929	188.000000
850.885742	184.000000
850.919495	189.000000
850.953308	200.000000
850.987122	200.000000
851.020874	190.000000
851.054626	188.000000
851.088440	194.000000
851.122192	195.000000
851.156006	195.000000
851.189697	195.000000
851.223511	187.000000
851.257263	195.000000
851.291077	197.000000
851.324829	195.000000
851.358582	193.000000
851.392334	195.000000
851.426086	190.000000
851.459900	202.000000
851.493591	193.000000
851.527344	191.000000
851.561157	193.000000
851.594849	194.000000
851.628662	191.000000
851.662415	205.000000
851.696106	191.000000
851.729858	199.000000
851.763611	188.000000
851.797363	194.000000
851.831116	188.000000
851.864868	196.000000
851.898560	199.000000
851.932312	194.000000
851.966064	194.000000
851.999817	190.000000
852.033569	188.000000
852.067261	201.000000
852.101013	188.000000
852.134766	193.000000
852.168457	183.000000
852.202209	199.000000
852.235901	188.000000
852.269592	195.000000
852.303345	199.000000
852.337036	195.000000
852.370789	190.000000
852.404541	199.000000
852.438171	184.000000
852.471924	192.000000
852.505676	191.000000
852.539307	196.000000
852.573059	193.000000
852.606812	197.000000
852.640442	192.000000
852.674194	199.000000
852.707886	203.000000
852.741577	199.000000
852.775269	190.000000
852.809021	193.000000
852.842651	195.000000
852.876404	199.000000
852.910034	196.000000
852.943787	193.000000
852.977478	195.000000
853.011108	190.000000
853.044861	189.000000
853.078552	197.000000
853.112183	195.000000
853.145874	193.000000
853.179626	186.000000
853.213257	191.000000
853.246948	191.000000
853.280640	193.000000
853.314270	191.000000
853.347961	196.000000
853.381653	199.000000
853.415283	192.000000
853.448975	189.000000
853.482605	190.000000
853.516296	194.000000
853.549988	183.000000
853.583618	193.000000
853.617310	195.000000
853.651001	190.000000
853.684631	192.000000
853.718323	189.000000
853.751953	192.000000
853.785583	188.000000
853.819275	193.000000
853.852966	192.000000
853.886536	187.000000
853.920227	191.000000
853.953918	195.000000
853.987488	192.000000
854.021179	197.000000
854.054749	197.000000
854.088440	194.000000
854.122131	189.000000
854.155701	196.000000
854.189331	187.000000
854.223022	197.000000
854.256592	195.000000
854.290283	192.000000
854.323914	192.000000
854.357483	194.000000
854.391174	194.000000
854.424744	200.000000
854.458374	197.000000
854.492065	204.000000
854.525696	187.000000
854.559265	195.000000
854.592896	203.000000
854.626465	194.000000
854.660095	191.000000
854.693787	197.000000
854.727356	191.000000
854.760986	196.000000
854.794617	195.000000
854.828186	196.000000
854.861816	191.000000
854.895447	199.000000
854.929016	192.000000
854.962585	195.000000
854.996155	197.000000
855.029785	196.000000
855.063416	196.000000
855.097046	195.000000
855.130615	191.000000
855.164185	196.000000
855.197754	192.000000
855.231384	197.000000
855.264954	189.000000
855.298523	198.000000
855.332153	195.000000
855.365723	197.000000
855.399292	195.000000
855.432922	189.000000
855.466492	192.000000
855.500061	188.000000
855.533630	196.000000
855.567200	195.000000
855.600769	193.000000
855.634338	197.000000
855.667969	192.000000
855.701477	191.000000
855.735046	193.000000
855.768616	188.000000
855.802185	196.000000
855.835754	204.000000
855.869324	185.000000
855.902893	194.000000
855.936401	200.000000
855.969971	191.000000
856.003540	187.000000
856.037109	195.000000
856.070618	193.000000
856.104187	188.000000
856.137695	195.000000
856.171265	183.000000
856.204834	194.000000
856.238403	199.000000
856.271912	189.000000
856.305481	192.000000
856.338989	186.000000
856.372559	196.000000
856.406128	196.000000
856.439636	197.000000
856.473145	191.000000
856.506653	199.000000
856.540222	194.000000
856.573792	197.000000
856.607300	198.000000
856.640808	190.000000
856.674377	194.000000
856.707825	227.000000
856.741394	199.000000
856.774902	194.000000
856.808472	190.000000
856.841980	202.000000
856.875488	197.000000
856.908936	189.000000
856.942505	194.000000
856.976013	195.000000
857.009521	191.000000
857.043030	195.000000
857.076477	193.000000
857.110046	197.000000
857.143555	195.000000
857.177063	192.000000
857.210571	186.000000
857.244080	188.000000
857.277527	193.000000
857.311035	197.000000
857.344543	191.000000
857.378052	192.000000
857.411499	193.000000
857.445068	200.000000
857.478516	189.000000
857.512024	189.000000
857.545532	192.000000
857.578979	193.000000
857.612427	187.000000
857.645874	192.000000
857.679382	192.000000
857.712891	197.000000
857.746399	193.000000
857.779846	196.000000
857.813354	195.000000
857.846741	193.000000
857.880249	189.000000
857.913757	192.000000
857.947266	197.000000
857.980652	193.000000
858.014160	194.000000
858.047546	194.000000
858.081055	187.000000
858.114563	205.000000
858.147949	190.000000
858.181458	197.000000
858.214844	192.000000
858.248352	186.000000
858.281799	194.000000
858.315308	206.000000
858.348694	198.000000
858.382141	196.000000
858.415588	198.000000
858.449036	197.000000
858.482483	195.000000
858.515930	191.000000
858.549377	197.000000
858.582825	195.000000
858.616211	200.000000
858.649658	190.000000
858.683105	191.000000
858.716553	187.000000
858.750000	189.000000
858.783386	186.000000
858.816833	191.000000
858.850281	194.000000
858.883728	194.000000
858.917114	193.000000
858.950562	201.000000
858.983948	195.000000
859.017395	200.000000
859.050781	196.000000
859.084167	190.000000
859.117615	187.000000
859.151062	195.000000
859.184448	184.000000
859.217834	193.000000
859.251282	194.000000
859.284668	185.000000
859.318054	186.000000
859.351440	191.000000
859.384888	197.000000
859.418274	191.000000
859.451721	191.000000
859.485046	192.000000
859.518494	195.000000
859.551819	193.000000
859.585266	191.000000
859.618652	197.000000
859.652039	190.000000
859.685425	185.000000
859.718811	188.000000
859.752197	181.000000
859.785583	197.000000
859.819031	199.000000
859.852356	197.000000
859.885742	188.000000
859.919067	194.000000
859.952454	188.000000
859.985901	195.000000
860.019287	191.000000
860.052612	0.000000
860.085999	0.000000
860.119324	0.000000
860.152710	0.000000
860.186096	0.000000
860.219421	0.000000
860.252808	0.000000
860.286133	0.000000
860.319519	0.000000
860.352905	0.000000
860.386292	0.000000
860.419617	0.000000
860.452942	0.000000
860.486267	0.000000
860.519653	0.000000
860.553040	0.000000
860.586365	0.000000
860.619690	0.000000
860.653076	0.000000
860.686340	0.000000
860.719727	0.000000
860.753113	0.000000
860.786377	0.000000
860.819763	0.000000
860.853027	0.000000
860.886414	0.000000
860.919739	0.000000
860.953125	0.000000
860.986389	0.000000
861.019714	0.000000
861.053040	0.000000
861.086365	0.000000
861.119690	0.000000
861.153076	0.000000
861.186340	0.000000
861.219666	0.000000
861.252930	0.000000
861.286316	0.000000
861.319641	0.000000
861.352905	0.000000
861.386230	0.000000
861.419495	0.000000
861.452820	0.000000
861.486145	0.000000
861.519470	0.000000
861.552734	0.000000
861.586060	0.000000
861.619324	0.000000
861.652649	0.000000
861.685974	0.000000
861.719238	0.000000
861.752563	0.000000
861.785828	0.000000
861.819092	0.000000
861.852417	0.000000
861.885742	0.000000
861.918945	0.000000
861.952271	0.000000
861.985535	0.000000
862.018799	0.000000
862.052124	0.000000
862.085449	0.000000
862.118652	0.000000
862.151978	0.000000
862.185181	0.000000
862.218506	0.000000
862.251770	0.000000
862.285034	0.000000
862.318298	0.000000
862.351562	0.000000
862.384827	0.000000
862.418091	0.000000
862.451355	0.000000
862.484619	0.000000
862.517883	0.000000
862.551086	0.000000
862.584351	0.000000
862.617676	0.000000
862.650940	0.000000
862.684143	0.000000
862.717407	0.000000
862.750610	0.000000
862.783875	0.000000
862.817139	0.000000
862.850342	0.000000
862.883606	0.000000
862.916870	0.000000
862.950073	0.000000
862.983337	0.000000
863.016602	0.000000
863.049805	0.000000
863.083069	0.000000
863.116211	0.000000
863.149475	0.000000
863.182739	0.000000
863.216003	0.000000
863.249146	0.000000
863.282410	0.000000
863.315613	0.000000
863.348816	0.000000
863.382080	0.000000
863.415222	0.000000
863.448486	0.000000
863.481689	0.000000
863.514893	0.000000
863.548157	0.000000
863.581360	0.000000
863.614502	0.000000
863.647766	0.000000
863.680908	0.000000
863.714172	0.000000
863.747375	0.000000
863.780579	0.000000
863.813721	0.000000
863.846985	0.000000
863.880127	0.000000
863.913330	0.000000
863.946533	0.000000
863.979675	0.000000
864.012939	0.000000
