Model Number: SPM-001-M   
Serial Number: 10144108
Firmware Version: 004.17.6
Exposure Time: 10000.000000us
Data Taken on: 11-12-2020 19:18:16.193
Wavelength	Amplitude
734.756226	0.000000
734.798218	0.000000
734.840271	0.000000
734.882263	0.000000
734.924255	0.000000
734.966248	0.000000
735.008301	0.000000
735.050293	0.000000
735.092285	0.000000
735.134277	0.000000
735.176270	0.000000
735.218262	0.000000
735.260254	0.000000
735.302307	0.000000
735.344299	0.000000
735.386292	0.000000
735.428284	0.000000
735.470276	0.000000
735.512268	0.000000
735.554260	0.000000
735.596252	0.000000
735.638245	0.000000
735.680237	0.000000
735.722290	0.000000
735.764221	0.000000
735.806213	0.000000
735.848206	0.000000
735.890198	0.000000
735.932190	0.000000
735.974182	0.000000
736.016174	0.000000
736.058167	0.000000
736.100159	0.000000
736.142090	0.000000
736.184143	0.000000
736.226074	0.000000
736.268066	0.000000
736.310059	0.000000
736.352051	0.000000
736.393982	0.000000
736.435974	0.000000
736.477966	0.000000
736.519958	0.000000
736.561890	0.000000
736.603943	0.000000
736.645874	0.000000
736.687866	0.000000
736.729797	0.000000
736.771851	0.000000
736.813782	0.000000
736.855713	0.000000
736.897766	0.000000
736.939697	0.000000
736.981628	0.000000
737.023621	0.000000
737.065613	0.000000
737.107544	0.000000
737.149536	0.000000
737.191528	0.000000
737.233459	0.000000
737.275391	0.000000
737.317383	0.000000
737.359375	0.000000
737.401306	0.000000
737.443237	0.000000
737.485291	0.000000
737.527222	0.000000
737.569153	0.000000
737.611084	0.000000
737.653076	0.000000
737.695007	0.000000
737.736938	0.000000
737.778992	0.000000
737.820923	0.000000
737.862854	0.000000
737.904785	0.000000
737.946777	0.000000
737.988708	0.000000
738.030640	0.000000
738.072632	0.000000
738.114563	0.000000
738.156494	0.000000
738.198425	0.000000
738.240417	0.000000
738.282349	0.000000
738.324280	0.000000
738.366272	0.000000
738.408203	0.000000
738.450073	0.000000
738.492004	0.000000
738.533997	0.000000
738.575928	0.000000
738.617859	0.000000
738.659851	0.000000
738.701782	0.000000
738.743652	0.000000
738.785583	0.000000
738.827576	0.000000
738.869507	0.000000
738.911438	0.000000
738.953369	0.000000
738.995300	0.000000
739.037231	0.000000
739.079102	0.000000
739.121094	0.000000
739.163025	0.000000
739.204956	0.000000
739.246887	0.000000
739.288818	0.000000
739.330688	0.000000
739.372620	0.000000
739.414612	0.000000
739.456482	0.000000
739.498413	0.000000
739.540344	0.000000
739.582275	0.000000
739.624207	0.000000
739.666077	0.000000
739.708069	0.000000
739.749939	0.000000
739.791870	0.000000
739.833740	0.000000
739.875732	0.000000
739.917603	0.000000
739.959473	136.200000
740.001465	136.600000
740.043335	136.200000
740.085266	137.400000
740.127136	135.000000
740.169128	135.000000
740.210999	134.800000
740.252869	135.800000
740.294861	136.000000
740.336731	136.800000
740.378601	137.200000
740.420532	136.800000
740.462463	136.600000
740.504333	135.200000
740.546204	135.400000
740.588196	135.400000
740.630066	135.000000
740.671936	135.600000
740.713806	135.200000
740.755798	135.200000
740.797668	135.600000
740.839539	136.200000
740.881470	136.800000
740.923340	136.200000
740.965210	137.600000
741.007141	136.800000
741.049072	136.400000
741.090942	135.800000
741.132812	137.000000
741.174744	136.400000
741.216614	134.800000
741.258484	134.800000
741.300354	134.800000
741.342285	134.600000
741.384155	134.400000
741.426025	134.800000
741.467957	135.800000
741.509827	135.200000
741.551697	135.000000
741.593567	134.600000
741.635498	135.600000
741.677368	135.200000
741.719238	135.200000
741.761169	135.800000
741.803040	135.400000
741.844849	135.600000
741.886719	135.800000
741.928650	136.000000
741.970520	135.400000
742.012390	135.200000
742.054321	135.600000
742.096130	133.400000
742.138000	134.200000
742.179871	135.000000
742.221802	135.400000
742.263672	135.400000
742.305481	135.400000
742.347412	135.400000
742.389282	134.400000
742.431091	134.400000
742.472961	134.600000
742.514893	136.000000
742.556702	136.400000
742.598572	135.800000
742.640503	135.400000
742.682312	134.200000
742.724182	134.200000
742.765991	133.800000
742.807922	135.000000
742.849792	136.600000
742.891602	136.800000
742.933533	136.400000
742.975342	136.200000
743.017212	135.400000
743.059021	135.400000
743.100952	135.200000
743.142761	136.000000
743.184631	134.600000
743.226501	136.200000
743.268372	134.400000
743.310181	134.400000
743.351990	134.600000
743.393921	135.600000
743.435730	135.000000
743.477600	135.000000
743.519470	135.800000
743.561279	135.800000
743.603149	135.800000
743.644958	136.000000
743.686829	136.400000
743.728699	135.800000
743.770508	135.200000
743.812378	134.800000
743.854187	134.200000
743.896057	135.400000
743.937866	136.800000
743.979736	136.800000
744.021545	137.800000
744.063416	137.800000
744.105286	136.800000
744.147095	136.200000
744.188904	135.800000
744.230713	136.400000
744.272583	135.800000
744.314453	136.000000
744.356262	135.600000
744.398132	135.800000
744.439941	135.200000
744.481750	135.400000
744.523560	136.000000
744.565430	135.200000
744.607239	135.600000
744.649048	135.600000
744.690918	136.000000
744.732727	135.400000
744.774536	135.400000
744.816345	136.000000
744.858215	135.200000
744.900024	135.600000
744.941833	136.000000
744.983704	136.400000
745.025513	136.400000
745.067322	136.400000
745.109070	137.600000
745.150940	136.200000
745.192749	135.600000
745.234558	134.400000
745.276428	135.000000
745.318237	134.400000
745.359985	135.000000
745.401794	136.600000
745.443665	136.600000
745.485474	136.800000
745.527283	136.200000
745.569092	136.000000
745.610901	136.600000
745.652710	136.000000
745.694458	135.800000
745.736328	136.000000
745.778137	136.200000
745.819885	135.800000
745.861755	136.600000
745.903564	136.600000
745.945312	135.600000
745.987122	136.000000
746.028992	134.800000
746.070740	134.800000
746.112549	134.800000
746.154358	134.800000
746.196167	135.200000
746.237915	135.400000
746.279724	136.000000
746.321533	135.800000
746.363342	135.400000
746.405090	135.200000
746.446960	134.400000
746.488708	134.800000
746.530518	133.600000
746.572266	133.400000
746.614136	132.800000
746.655884	133.200000
746.697632	133.400000
746.739502	134.400000
746.781250	135.800000
746.823059	135.600000
746.864807	136.200000
746.906616	135.600000
746.948364	135.200000
746.990173	135.600000
747.031982	135.200000
747.073730	135.800000
747.115540	135.000000
747.157288	134.400000
747.199097	134.200000
747.240845	135.200000
747.282654	134.600000
747.324463	134.000000
747.366211	135.400000
747.407959	134.000000
747.449707	134.000000
747.491516	133.800000
747.533325	134.400000
747.575073	134.400000
747.616882	135.200000
747.658630	136.000000
747.700378	136.200000
747.742126	136.200000
747.783936	136.200000
747.825684	136.600000
747.867432	136.400000
747.909241	135.800000
747.950989	136.000000
747.992737	135.600000
748.034485	135.400000
748.076294	135.600000
748.118042	135.800000
748.159790	137.600000
748.201599	137.400000
748.243347	137.800000
748.285095	137.200000
748.326843	137.800000
748.368652	136.400000
748.410339	136.200000
748.452087	137.000000
748.493896	136.200000
748.535645	136.200000
748.577393	136.400000
748.619141	137.400000
748.660889	136.400000
748.702637	135.800000
748.744385	135.600000
748.786194	135.000000
748.827881	134.200000
748.869629	134.200000
748.911377	135.000000
748.953125	135.400000
748.994873	135.600000
749.036621	135.600000
749.078369	134.000000
749.120117	134.000000
749.161865	133.600000
749.203552	132.400000
749.245361	133.200000
749.287109	134.600000
749.328796	134.800000
749.370605	134.400000
749.412292	136.000000
749.454041	135.800000
749.495728	135.800000
749.537537	137.200000
749.579224	137.400000
749.620972	137.200000
749.662720	136.800000
749.704468	136.600000
749.746155	135.200000
749.787903	135.600000
749.829651	136.000000
749.871399	135.400000
749.913086	135.600000
749.954834	135.200000
749.996582	134.400000
750.038269	134.200000
750.079956	134.000000
750.121765	133.800000
750.163452	134.000000
750.205139	134.400000
750.246948	134.400000
750.288635	135.400000
750.330322	136.400000
750.372009	136.200000
750.413818	137.200000
750.455505	136.200000
750.497192	135.800000
750.538940	134.800000
750.580688	134.800000
750.622375	134.800000
750.664062	135.200000
750.705811	135.800000
750.747498	135.200000
750.789185	135.400000
750.830933	135.400000
750.872681	135.800000
750.914368	137.000000
750.956055	136.600000
750.997803	137.000000
751.039490	135.600000
751.081177	135.600000
751.122925	134.000000
751.164612	135.200000
751.206299	135.200000
751.247986	135.600000
751.289734	135.200000
751.331421	135.800000
751.373108	134.800000
751.414856	135.000000
751.456543	134.400000
751.498169	135.800000
751.539856	134.400000
751.581604	134.800000
751.623291	134.000000
751.664978	135.400000
751.706726	134.000000
751.748413	134.000000
751.790039	134.600000
751.831726	134.400000
751.873474	133.800000
751.915161	133.800000
751.956848	134.600000
751.998535	135.400000
752.040222	135.400000
752.081909	135.000000
752.123596	134.600000
752.165283	135.200000
752.206970	133.800000
752.248657	134.000000
752.290283	134.800000
752.332031	134.800000
752.373718	134.400000
752.415344	134.000000
752.457092	133.000000
752.498718	132.400000
752.540405	132.800000
752.582031	133.200000
752.623779	134.200000
752.665466	136.200000
752.707092	135.600000
752.748840	135.600000
752.790466	135.400000
752.832153	134.000000
752.873779	134.200000
752.915527	134.600000
752.957153	135.400000
752.998779	134.200000
753.040527	134.600000
753.082153	134.000000
753.123840	134.000000
753.165466	134.400000
753.207153	134.400000
753.248840	135.800000
753.290466	135.800000
753.332153	135.200000
753.373840	134.800000
753.415466	135.000000
753.457092	135.400000
753.498840	134.600000
753.540466	135.200000
753.582092	135.000000
753.623779	134.800000
753.665466	134.600000
753.707092	134.400000
753.748718	135.400000
753.790405	134.000000
753.832031	134.000000
753.873718	133.000000
753.915405	133.600000
753.957031	133.000000
753.998657	133.800000
754.040283	135.200000
754.081970	134.600000
754.123596	135.200000
754.165222	134.600000
754.206909	134.200000
754.248535	134.000000
754.290222	134.200000
754.331848	133.400000
754.373535	133.600000
754.415161	133.400000
754.456787	133.800000
754.498413	133.800000
754.540039	134.600000
754.581665	133.800000
754.623291	135.200000
754.664978	134.000000
754.706604	135.200000
754.748230	135.000000
754.789917	136.000000
754.831543	135.600000
754.873169	135.200000
754.914734	135.200000
754.956421	135.200000
754.998047	135.400000
755.039673	135.400000
755.081360	136.200000
755.122925	136.200000
755.164551	134.600000
755.206177	134.200000
755.247864	133.400000
755.289429	133.200000
755.331055	132.200000
755.372742	133.400000
755.414307	134.200000
755.455933	134.400000
755.497559	136.000000
755.539185	136.200000
755.580811	135.800000
755.622437	135.600000
755.664062	135.400000
755.705688	133.200000
755.747253	132.800000
755.788879	133.400000
755.830505	133.000000
755.872131	134.000000
755.913757	135.000000
755.955383	135.000000
755.997009	135.600000
756.038574	135.400000
756.080200	135.200000
756.121826	135.200000
756.163391	135.200000
756.205017	135.600000
756.246643	136.000000
756.288269	136.200000
756.329834	135.200000
756.371399	135.200000
756.413086	134.400000
756.454651	133.200000
756.496216	134.200000
756.537903	134.600000
756.579468	135.200000
756.621033	134.600000
756.662659	135.000000
756.704285	133.800000
756.745850	133.600000
756.787415	134.000000
756.829102	133.000000
756.870667	133.600000
756.912231	133.000000
756.953796	133.200000
756.995422	133.200000
757.037048	135.000000
757.078613	135.200000
757.120239	134.200000
757.161804	134.600000
757.203369	133.800000
757.244934	133.000000
757.286560	132.800000
757.328125	133.600000
757.369751	133.600000
757.411377	132.600000
757.452942	133.200000
757.494507	133.600000
757.536072	133.800000
757.577698	134.800000
757.619263	136.000000
757.660828	137.200000
757.702454	136.000000
757.743958	136.200000
757.785522	135.000000
757.827087	134.800000
757.868713	134.400000
757.910278	134.000000
757.951843	135.000000
757.993469	135.000000
758.035034	135.600000
758.076599	135.000000
758.118103	136.400000
758.159729	135.400000
758.201294	134.600000
758.242859	135.000000
758.284485	134.400000
758.325989	134.200000
758.367554	134.400000
758.409119	134.800000
758.450684	134.400000
758.492249	134.400000
758.533813	134.000000
758.575439	133.800000
758.616943	133.600000
758.658508	133.400000
758.700012	133.800000
758.741638	134.800000
758.783203	134.200000
758.824707	135.200000
758.866333	135.000000
758.907837	135.200000
758.949402	135.200000
758.990967	135.600000
759.032532	136.400000
759.074097	135.400000
759.115601	135.200000
759.157227	134.400000
759.198730	134.600000
759.240295	134.800000
759.281799	135.800000
759.323364	136.200000
759.364929	135.800000
759.406433	135.800000
759.448059	135.200000
759.489563	136.000000
759.531067	135.800000
759.572632	135.400000
759.614197	136.600000
759.655762	135.600000
759.697266	135.200000
759.738831	134.600000
759.780334	135.200000
759.821899	135.000000
759.863403	135.200000
759.904968	135.800000
759.946472	135.200000
759.988037	135.400000
760.029602	135.200000
760.071106	134.800000
760.112610	135.000000
760.154175	134.800000
760.195740	134.800000
760.237244	134.000000
760.278748	134.400000
760.320251	133.000000
760.361816	134.400000
760.403320	135.000000
760.444824	134.400000
760.486389	135.600000
760.527893	135.800000
760.569458	135.400000
760.610962	135.200000
760.652527	135.800000
760.694031	135.000000
760.735535	134.600000
760.777100	134.600000
760.818604	134.800000
760.860046	134.800000
760.901550	135.600000
760.943115	136.000000
760.984619	136.800000
761.026123	135.600000
761.067688	135.600000
761.109192	134.800000
761.150696	134.200000
761.192200	134.200000
761.233704	134.400000
761.275208	135.600000
761.316711	135.200000
761.358276	135.000000
761.399780	135.400000
761.441223	135.400000
761.482727	135.400000
761.524292	135.800000
761.565796	136.000000
761.607239	133.800000
761.648804	134.200000
761.690308	133.800000
761.731750	133.400000
761.773254	134.200000
761.814819	133.600000
761.856262	133.800000
761.897766	133.000000
761.939270	132.400000
761.980774	132.400000
762.022278	133.400000
762.063721	133.800000
762.105286	133.400000
762.146729	134.000000
762.188232	133.600000
762.229736	134.600000
762.271240	135.000000
762.312683	135.800000
762.354187	136.600000
762.395691	136.400000
762.437195	136.600000
762.478638	135.200000
762.520203	135.000000
762.561646	135.000000
762.603088	135.200000
762.644592	135.400000
762.686096	135.200000
762.727539	135.400000
762.769043	135.000000
762.810547	135.000000
762.851990	134.800000
762.893494	135.000000
762.934937	136.200000
762.976440	135.200000
763.017944	135.600000
763.059387	135.000000
763.100891	135.800000
763.142334	135.000000
763.183777	135.000000
763.225281	135.400000
763.266785	134.800000
763.308228	135.000000
763.349670	135.000000
763.391174	135.400000
763.432617	135.400000
763.474060	135.200000
763.515564	134.200000
763.557068	133.800000
763.598511	134.400000
763.639954	134.400000
763.681458	135.200000
763.722900	137.600000
763.764343	137.000000
763.805786	137.800000
763.847290	137.200000
763.888733	137.800000
763.930176	137.000000
763.971680	137.200000
764.013123	138.000000
764.054565	138.000000
764.096008	138.600000
764.137451	138.600000
764.178894	138.200000
764.220337	137.200000
764.261841	137.000000
764.303284	136.400000
764.344727	134.600000
764.386169	135.400000
764.427612	134.600000
764.469055	134.400000
764.510498	134.600000
764.552002	135.400000
764.593384	136.600000
764.634827	137.000000
764.676270	137.600000
764.717773	136.800000
764.759155	137.400000
764.800598	136.800000
764.842102	135.600000
764.883484	135.800000
764.924927	136.000000
764.966370	135.200000
765.007812	134.600000
765.049255	135.400000
765.090637	135.600000
765.132141	135.200000
765.173584	136.200000
765.214966	135.400000
765.256409	135.200000
765.297852	135.400000
765.339294	135.400000
765.380676	135.800000
765.422180	135.200000
765.463562	135.600000
765.505005	135.000000
765.546387	135.200000
765.587830	134.000000
765.629272	135.800000
765.670654	136.600000
765.712158	136.000000
765.753540	135.800000
765.794922	135.600000
765.836365	135.400000
765.877808	134.800000
765.919189	135.400000
765.960632	136.800000
766.002075	136.200000
766.043457	135.600000
766.084839	134.400000
766.126282	134.200000
766.167725	134.000000
766.209106	135.200000
766.250488	135.600000
766.291992	135.800000
766.333374	136.600000
766.374756	135.000000
766.416138	134.200000
766.457581	134.800000
766.498962	135.200000
766.540405	135.400000
766.581848	135.600000
766.623230	136.000000
766.664612	135.000000
766.705994	135.800000
766.747437	135.600000
766.788818	135.800000
766.830200	136.600000
766.871643	136.800000
766.913025	136.000000
766.954407	135.400000
766.995789	135.000000
767.037231	135.200000
767.078613	135.000000
767.119995	136.000000
767.161438	135.600000
767.202820	136.600000
767.244141	136.200000
767.285522	136.200000
767.326965	136.000000
767.368347	135.600000
767.409729	134.400000
767.451172	133.400000
767.492554	133.400000
767.533875	133.400000
767.575256	133.600000
767.616699	135.400000
767.658081	134.400000
767.699402	135.200000
767.740845	134.600000
767.782227	135.800000
767.823608	135.200000
767.864929	136.600000
767.906372	136.800000
767.947754	135.800000
767.989075	135.000000
768.030518	134.400000
768.071838	135.000000
768.113220	134.600000
768.154602	134.800000
768.195984	136.600000
768.237366	136.200000
768.278687	135.400000
768.320129	134.400000
768.361450	134.400000
768.402832	133.200000
768.444153	133.400000
768.485596	133.800000
768.526917	134.400000
768.568298	134.800000
768.609680	134.600000
768.651062	135.400000
768.692383	136.400000
768.733765	136.200000
768.775146	137.400000
768.816467	137.000000
768.857849	136.200000
768.899231	135.800000
768.940552	135.400000
768.981934	135.600000
769.023254	135.200000
769.064636	136.000000
769.106018	135.200000
769.147339	135.000000
769.188721	133.800000
769.230042	134.600000
769.271423	134.400000
769.312744	134.000000
769.354126	134.800000
769.395447	134.600000
769.436768	134.200000
769.478210	134.400000
769.519531	134.400000
769.560852	134.200000
769.602173	134.400000
769.643555	135.000000
769.684875	134.400000
769.726196	134.600000
769.767578	135.000000
769.808899	134.800000
769.850220	135.400000
769.891541	134.800000
769.932922	136.000000
769.974243	135.600000
770.015564	136.000000
770.056946	135.400000
770.098267	135.600000
770.139587	135.600000
770.180908	134.800000
770.222290	134.800000
770.263611	134.800000
770.304932	135.400000
770.346313	135.600000
770.387634	135.600000
770.428955	136.400000
770.470215	135.800000
770.511597	136.200000
770.552917	134.800000
770.594238	135.200000
770.635620	135.800000
770.676880	135.600000
770.718201	135.600000
770.759521	136.200000
770.800903	136.200000
770.842163	134.400000
770.883484	134.400000
770.924866	134.800000
770.966125	133.200000
771.007446	133.200000
771.048767	133.800000
771.090088	134.200000
771.131409	133.600000
771.172668	134.800000
771.214050	136.400000
771.255371	135.400000
771.296631	135.200000
771.337952	135.000000
771.379272	134.400000
771.420593	134.200000
771.461853	133.800000
771.503235	134.800000
771.544495	133.400000
771.585815	133.200000
771.627075	131.800000
771.668457	132.800000
771.709717	132.200000
771.751038	132.800000
771.792358	133.200000
771.833618	134.000000
771.874939	134.200000
771.916199	134.200000
771.957520	134.600000
771.998840	135.800000
772.040100	135.400000
772.081421	136.200000
772.122742	135.600000
772.164001	136.400000
772.205261	135.800000
772.246582	135.800000
772.287903	135.200000
772.329163	135.400000
772.370483	135.000000
772.411743	133.800000
772.453064	133.200000
772.494324	133.400000
772.535645	134.000000
772.576904	134.800000
772.618164	134.800000
772.659485	135.800000
772.700745	134.800000
772.742004	133.600000
772.783264	132.600000
772.824646	133.200000
772.865906	133.600000
772.907166	133.400000
772.948486	133.800000
772.989746	133.200000
773.031006	133.800000
773.072266	133.200000
773.113586	133.200000
773.154846	134.200000
773.196045	134.200000
773.237366	134.200000
773.278625	135.000000
773.319885	135.000000
773.361145	135.200000
773.402466	136.000000
773.443726	136.000000
773.484985	133.800000
773.526245	135.000000
773.567505	134.400000
773.608765	134.800000
773.650024	134.600000
773.691345	135.400000
773.732544	135.200000
773.773804	134.600000
773.815125	134.200000
773.856384	134.800000
773.897583	135.400000
773.938843	136.200000
773.980164	136.000000
774.021362	136.400000
774.062622	135.000000
774.103943	134.600000
774.145142	133.600000
774.186401	133.400000
774.227600	133.600000
774.268921	133.800000
774.310181	134.200000
774.351379	134.400000
774.392700	134.400000
774.433899	134.200000
774.475159	134.200000
774.516357	134.800000
774.557678	134.000000
774.598877	134.400000
774.640137	133.200000
774.681335	133.600000
774.722656	133.000000
774.763855	133.600000
774.805054	135.000000
774.846375	135.200000
774.887573	135.400000
774.928833	135.200000
774.970032	135.200000
775.011292	134.400000
775.052551	134.200000
775.093750	134.200000
775.135010	132.800000
775.176208	132.800000
775.217468	132.400000
775.258667	133.000000
775.299927	134.200000
775.341125	134.800000
775.382385	135.400000
775.423645	134.600000
775.464844	135.200000
775.506042	133.800000
775.547241	134.800000
775.588501	134.400000
775.629761	135.000000
775.670959	135.600000
775.712219	135.600000
775.753418	135.800000
775.794617	135.600000
775.835815	135.800000
775.877075	135.400000
775.918274	135.400000
775.959473	134.600000
776.000732	133.600000
776.041931	133.400000
776.083130	133.600000
776.124329	133.800000
776.165588	135.600000
776.206787	135.600000
776.247986	136.200000
776.289246	135.400000
776.330444	135.000000
776.371643	133.800000
776.412842	135.000000
776.454041	135.800000
776.495239	135.400000
776.536438	136.000000
776.577698	135.800000
776.618896	135.800000
776.660034	135.600000
776.701233	135.600000
776.742493	136.200000
776.783691	136.200000
776.824829	135.800000
776.866089	135.000000
776.907288	135.600000
776.948486	135.200000
776.989624	136.200000
777.030884	138.000000
777.072083	137.200000
777.113220	136.800000
777.154480	136.400000
777.195618	135.400000
777.236816	134.600000
777.278015	135.600000
777.319214	136.400000
777.360413	135.800000
777.401550	135.800000
777.442810	135.000000
777.483948	134.600000
777.525146	134.800000
777.566284	134.600000
777.607544	135.400000
777.648682	134.200000
777.689880	134.600000
777.731079	133.800000
777.772217	134.400000
777.813416	134.400000
777.854553	135.800000
777.895813	136.800000
777.936951	136.200000
777.978088	136.600000
778.019348	136.400000
778.060486	135.200000
778.101624	134.800000
778.142822	135.400000
778.184021	135.200000
778.225159	134.600000
778.266296	135.600000
778.307556	135.600000
778.348694	135.000000
778.389832	136.200000
778.430969	136.000000
778.472168	136.200000
778.513367	135.200000
778.554504	135.600000
778.595703	134.600000
778.636841	134.600000
778.677979	135.000000
778.719116	134.200000
778.760315	134.000000
778.801453	133.200000
778.842590	133.200000
778.883850	132.400000
778.924988	133.200000
778.966125	134.200000
779.007263	134.600000
779.048462	134.600000
779.089600	134.600000
779.130676	134.200000
779.171875	134.000000
779.213013	134.400000
779.254150	135.600000
779.295288	136.200000
779.336487	137.000000
779.377625	137.000000
779.418762	136.600000
779.459961	137.000000
779.501038	136.200000
779.542175	136.000000
779.583313	135.400000
779.624512	136.200000
779.665649	136.000000
779.706726	136.800000
779.747925	138.000000
779.789062	137.000000
779.830200	137.400000
779.871277	135.800000
779.912476	134.800000
779.953613	133.800000
779.994690	135.000000
780.035889	134.800000
780.077026	135.200000
780.118103	136.200000
780.159241	135.800000
780.200439	135.800000
780.241516	135.800000
780.282654	135.200000
780.323730	136.200000
780.364929	136.000000
780.406006	136.000000
780.447144	135.000000
780.488281	136.000000
780.529419	136.200000
780.570496	136.000000
780.611633	136.800000
780.652771	136.200000
780.693909	136.200000
780.734985	134.800000
780.776184	135.400000
780.817261	135.400000
780.858337	135.200000
780.899475	135.600000
780.940613	135.400000
780.981689	134.400000
781.022827	134.200000
781.063965	134.600000
781.105042	134.200000
781.146179	133.200000
781.187256	134.000000
781.228394	132.200000
781.269470	132.200000
781.310608	131.800000
781.351746	132.400000
781.392822	133.200000
781.433899	133.800000
781.474976	135.000000
781.516113	136.400000
781.557251	136.600000
781.598328	136.400000
781.639465	136.800000
781.680542	137.000000
781.721619	135.000000
781.762695	134.200000
781.803833	133.200000
781.844910	133.200000
781.885986	133.000000
781.927124	133.400000
781.968201	135.600000
782.009277	135.200000
782.050354	135.200000
782.091492	134.600000
782.132568	134.200000
782.173645	134.000000
782.214783	134.600000
782.255859	135.000000
782.296936	134.600000
782.338013	135.000000
782.379150	133.400000
782.420166	133.600000
782.461243	135.000000
782.502380	134.600000
782.543457	135.200000
782.584534	135.800000
782.625549	135.200000
782.666687	133.600000
782.707764	134.600000
782.748840	135.000000
782.789917	135.400000
782.830994	136.800000
782.872070	135.800000
782.913086	135.400000
782.954224	135.000000
782.995300	134.600000
783.036316	135.600000
783.077454	136.000000
783.118530	136.600000
783.159546	135.600000
783.200623	136.000000
783.241699	134.600000
783.282776	134.400000
783.323853	135.200000
783.364929	135.000000
783.406006	135.400000
783.447021	134.200000
783.488098	135.200000
783.529175	134.800000
783.570251	135.000000
783.611267	135.000000
783.652344	136.000000
783.693420	136.000000
783.734436	135.000000
783.775513	135.600000
783.816589	135.400000
783.857605	135.800000
783.898682	136.400000
783.939758	135.800000
783.980774	135.200000
784.021851	135.000000
784.062866	133.800000
784.103943	133.600000
784.144958	134.400000
784.186035	136.200000
784.227112	135.600000
784.268127	135.800000
784.309143	135.000000
784.350220	134.000000
784.391296	134.000000
784.432312	134.000000
784.473328	134.600000
784.514404	134.600000
784.555420	135.200000
784.596436	134.000000
784.637512	134.400000
784.678589	135.600000
784.719604	135.200000
784.760620	136.400000
784.801697	136.800000
784.842712	136.600000
784.883728	135.400000
784.924744	137.000000
784.965820	136.400000
785.006836	135.600000
785.047852	135.400000
785.088928	135.400000
785.129944	133.600000
785.170959	133.800000
785.211914	133.600000
785.252991	134.000000
785.294006	134.400000
785.335022	135.400000
785.376099	135.000000
785.417114	135.600000
785.458130	136.000000
785.499084	135.000000
785.540161	135.800000
785.581177	136.000000
785.622192	136.800000
785.663208	137.200000
785.704224	137.800000
785.745239	138.000000
785.786255	137.600000
785.827271	137.000000
785.868286	135.600000
785.909302	135.200000
785.950317	134.400000
785.991333	134.400000
786.032349	135.200000
786.073303	135.400000
786.114380	136.600000
786.155334	135.800000
786.196350	136.000000
786.237366	135.200000
786.278381	134.600000
786.319336	135.400000
786.360352	136.200000
786.401367	137.200000
786.442383	136.400000
786.483337	136.400000
786.524414	135.000000
786.565369	134.000000
786.606384	133.600000
786.647339	133.800000
786.688416	134.200000
786.729370	133.400000
786.770325	133.200000
786.811401	132.400000
786.852356	132.800000
786.893311	133.600000
786.934326	134.400000
786.975342	135.800000
787.016296	134.800000
787.057251	134.200000
787.098328	133.600000
787.139282	132.600000
787.180237	132.400000
787.221191	133.400000
787.262268	134.200000
787.303223	134.000000
787.344177	134.800000
787.385193	135.000000
787.426147	135.000000
787.467102	136.000000
787.508057	135.800000
787.549133	136.000000
787.590088	135.200000
787.631042	135.600000
787.672058	135.400000
787.713013	135.000000
787.753967	135.800000
787.794922	135.600000
787.835937	135.000000
787.876892	134.800000
787.917847	135.200000
787.958862	135.000000
787.999817	135.000000
788.040771	135.600000
788.081726	134.200000
788.122681	135.000000
788.163635	134.400000
788.204590	134.200000
788.245605	134.600000
788.286560	134.400000
788.327515	135.000000
788.368469	135.400000
788.409424	135.400000
788.450378	135.400000
788.491333	136.800000
788.532349	137.600000
788.573242	137.000000
788.614197	137.800000
788.655151	137.200000
788.696167	136.600000
788.737061	136.000000
788.778015	136.000000
788.819031	136.800000
788.859924	136.600000
788.900879	136.800000
788.941833	135.800000
788.982788	134.600000
789.023743	134.600000
789.064636	134.800000
789.105652	135.400000
789.146545	134.600000
789.187500	136.200000
789.228455	134.800000
789.269409	134.200000
789.310364	133.600000
789.351257	134.000000
789.392212	133.600000
789.433167	134.200000
789.474060	134.000000
789.515015	135.000000
789.555969	135.400000
789.596924	136.400000
789.637817	135.000000
789.678772	136.400000
789.719727	134.600000
789.760620	134.000000
789.801514	132.800000
789.842529	133.200000
789.883423	133.200000
789.924316	133.200000
789.965332	133.800000
790.006226	134.400000
790.047119	135.000000
790.088013	134.200000
790.128967	134.800000
790.169922	135.800000
790.210815	134.800000
790.251770	134.800000
790.292664	134.800000
790.333557	135.800000
790.374451	136.000000
790.415466	137.400000
790.456360	138.600000
790.497253	138.000000
790.538208	137.800000
790.579102	137.200000
790.619995	135.400000
790.660889	135.600000
790.701843	136.200000
790.742737	136.200000
790.783630	135.400000
790.824585	137.000000
790.865479	136.000000
790.906372	136.200000
790.947266	136.000000
790.988220	135.600000
791.029053	135.600000
791.069946	135.400000
791.110901	135.800000
791.151794	135.400000
791.192688	135.600000
791.233582	136.200000
791.274536	135.600000
791.315369	136.200000
791.356262	136.200000
791.397217	136.800000
791.438110	135.800000
791.478943	136.600000
791.519836	135.800000
791.560791	136.000000
791.601685	135.400000
791.642517	134.200000
791.683472	133.800000
791.724365	133.800000
791.765198	133.800000
791.806091	134.800000
791.846985	134.400000
791.887878	134.800000
791.928772	133.600000
791.969666	132.400000
792.010559	132.400000
792.051392	134.000000
792.092285	134.600000
792.133179	134.600000
792.174072	136.400000
792.214905	135.800000
792.255859	136.200000
792.296692	136.000000
792.337585	136.400000
792.378418	136.400000
792.419373	135.600000
792.460205	135.000000
792.501038	133.800000
792.541992	134.200000
792.582825	133.600000
792.623657	135.000000
792.664551	136.000000
792.705444	135.600000
792.746277	135.000000
792.787170	134.400000
792.828064	133.400000
792.868896	133.200000
792.909729	133.800000
792.950623	135.400000
792.991516	135.800000
793.032349	136.800000
793.073181	136.800000
793.114075	137.400000
793.154968	137.200000
793.195801	137.000000
793.236633	136.200000
793.277527	134.600000
793.318359	134.400000
793.359192	134.400000
793.400085	134.600000
793.440918	136.200000
793.481750	136.200000
793.522583	136.000000
793.563477	135.200000
793.604309	134.800000
793.645142	135.000000
793.686035	135.200000
793.726868	136.200000
793.767700	136.200000
793.808533	136.400000
793.849426	134.800000
793.890259	136.000000
793.931091	135.600000
793.971985	135.600000
794.012817	136.400000
794.053650	135.200000
794.094421	135.200000
794.135315	134.400000
794.176147	134.600000
794.216980	134.600000
794.257874	136.000000
794.298645	136.400000
794.339478	136.200000
794.380310	135.800000
794.421204	135.400000
794.461975	135.000000
794.502808	134.800000
794.543701	135.200000
794.584473	137.000000
794.625305	136.800000
794.666138	136.600000
794.706970	135.600000
794.747803	135.200000
794.788574	134.400000
794.829468	134.400000
794.870239	135.800000
794.911072	135.200000
794.951904	135.200000
794.992737	135.800000
795.033569	135.800000
795.074341	134.800000
795.115234	135.000000
795.156006	135.200000
795.196777	133.400000
795.237610	134.000000
795.278442	134.600000
795.319275	134.600000
795.360046	136.000000
795.400879	136.200000
795.441711	136.400000
795.482483	135.200000
795.523254	135.800000
795.564148	134.800000
795.604919	135.000000
795.645691	134.800000
795.686523	135.200000
795.727356	135.600000
795.768127	135.000000
795.808899	135.200000
795.849792	135.800000
795.890564	136.000000
795.931335	136.800000
795.972107	136.600000
796.012939	136.400000
796.053711	135.200000
796.094543	134.200000
796.135376	133.000000
796.176147	135.000000
796.216919	136.800000
796.257690	137.200000
796.298523	138.200000
796.339294	138.200000
796.380066	136.400000
796.420898	136.000000
796.461670	135.000000
796.502441	134.000000
796.543213	132.800000
796.584045	133.600000
796.624817	133.000000
796.665588	133.600000
796.706421	135.400000
796.747192	135.600000
796.787964	135.800000
796.828674	134.600000
796.869507	134.800000
796.910278	134.800000
796.951050	135.600000
796.991882	135.800000
797.032654	135.200000
797.073364	135.600000
797.114136	134.800000
797.154968	134.800000
797.195740	135.600000
797.236450	136.200000
797.277283	136.600000
797.318054	136.400000
797.358826	136.000000
797.399536	134.400000
797.440369	134.600000
797.481079	133.600000
797.521851	134.400000
797.562683	135.400000
797.603394	135.400000
797.644165	136.400000
797.684875	136.800000
797.725708	135.800000
797.766479	135.800000
797.807190	135.600000
797.848022	136.000000
797.888733	134.600000
797.929504	135.600000
797.970215	135.400000
798.011047	136.200000
798.051758	135.800000
798.092468	136.200000
798.133301	137.200000
798.174011	135.800000
798.214783	136.000000
798.255493	135.800000
798.296265	136.800000
798.337036	136.000000
798.377747	136.600000
798.418518	136.600000
798.459290	136.000000
798.500000	135.600000
798.540710	135.000000
798.581482	135.400000
798.622253	135.000000
798.662964	134.600000
798.703735	134.000000
798.744446	133.200000
798.785156	133.200000
798.825928	133.600000
798.866699	134.400000
798.907410	134.800000
798.948120	134.200000
798.988831	134.600000
799.029602	133.800000
799.070312	133.400000
799.111023	133.800000
799.151794	135.400000
799.192505	135.200000
799.233215	134.600000
799.273926	135.200000
799.314697	135.200000
799.355408	134.600000
799.396118	135.200000
799.436890	134.800000
799.477600	135.400000
799.518311	134.800000
799.559021	134.800000
799.599792	134.600000
799.640503	135.200000
799.681213	135.200000
799.721985	136.200000
799.762634	138.400000
799.803345	140.600000
799.844055	145.200000
799.884827	149.000000
799.925537	153.000000
799.966187	157.400000
800.006958	160.400000
800.047668	162.400000
800.088379	163.600000
800.129028	164.400000
800.169800	165.600000
800.210510	167.000000
800.251160	167.600000
800.291931	166.200000
800.332642	166.600000
800.373291	165.400000
800.414001	165.200000
800.454712	166.000000
800.495422	168.200000
800.536133	168.400000
800.576843	167.000000
800.617554	166.000000
800.658203	164.000000
800.698914	162.800000
800.739624	163.000000
800.780334	164.200000
800.820984	166.200000
800.861755	166.200000
800.902405	165.600000
800.943054	164.200000
800.983765	163.400000
801.024475	162.000000
801.065186	162.400000
801.105835	163.600000
801.146545	163.600000
801.187256	163.600000
801.227905	163.400000
801.268555	163.400000
801.309265	163.800000
801.349976	164.600000
801.390625	166.200000
801.431335	164.800000
801.471985	163.600000
801.512695	162.400000
801.553345	161.600000
801.594055	161.200000
801.634705	160.400000
801.675354	161.800000
801.716064	158.800000
801.756775	156.000000
801.797424	151.600000
801.838074	149.200000
801.878784	147.000000
801.919434	148.800000
801.960083	152.000000
802.000793	154.600000
802.041443	157.200000
802.082092	159.200000
802.122742	159.800000
802.163452	159.400000
802.204102	159.000000
802.244751	159.000000
802.285461	157.200000
802.326111	155.200000
802.366760	154.200000
802.407410	151.200000
802.448120	148.400000
802.488708	144.200000
802.529358	142.000000
802.570068	138.400000
802.610718	137.600000
802.651367	136.800000
802.691956	137.200000
802.732666	137.200000
802.773315	136.400000
802.813965	135.800000
802.854675	135.800000
802.895264	135.600000
802.935913	135.200000
802.976562	135.800000
803.017212	136.200000
803.057861	134.800000
803.098511	134.000000
803.139160	133.800000
803.179810	134.200000
803.220398	134.600000
803.261047	135.400000
803.301758	137.600000
803.342346	137.200000
803.382996	137.200000
803.423645	137.000000
803.464294	136.800000
803.504883	136.200000
803.545532	136.000000
803.586182	135.800000
803.626831	134.000000
803.667419	132.800000
803.708130	132.000000
803.748718	132.000000
803.789307	132.200000
803.829956	132.600000
803.870605	134.600000
803.911194	134.000000
803.951843	135.000000
803.992493	135.200000
804.033081	136.400000
804.073730	135.400000
804.114319	135.600000
804.154968	135.600000
804.195618	135.400000
804.236206	134.800000
804.276855	135.000000
804.317444	135.200000
804.358032	136.400000
804.398682	135.800000
804.439331	135.200000
804.479919	136.000000
804.520508	136.200000
804.561157	135.000000
804.601746	134.600000
804.642334	136.000000
804.682922	135.200000
804.723572	135.200000
804.764221	134.800000
804.804810	135.200000
804.845459	135.800000
804.886047	135.200000
804.926636	136.200000
804.967224	136.200000
805.007874	137.000000
805.048401	136.200000
805.088989	136.800000
805.129639	136.000000
805.170227	135.200000
805.210815	136.200000
805.251404	135.600000
805.292053	135.800000
805.332642	136.400000
805.373230	137.200000
805.413818	136.200000
805.454407	135.600000
805.494995	135.400000
805.535583	134.000000
805.576172	134.000000
805.616760	133.200000
805.657349	133.200000
805.697998	134.400000
805.738525	134.200000
805.779114	134.000000
805.819702	134.800000
805.860291	135.400000
805.900879	135.000000
805.941467	135.800000
805.982056	136.600000
806.022644	135.400000
806.063171	135.600000
806.103760	135.000000
806.144348	135.000000
806.184937	135.600000
806.225525	135.000000
806.266113	135.400000
806.306702	135.200000
806.347229	135.600000
806.387756	135.200000
806.428406	137.000000
806.468933	137.400000
806.509521	137.200000
806.550110	138.000000
806.590698	137.800000
806.631226	137.400000
806.671753	136.600000
806.712402	137.200000
806.752930	135.600000
806.793457	135.400000
806.834106	135.800000
806.874634	136.400000
806.915161	136.000000
806.955688	136.800000
806.996338	135.600000
807.036865	135.600000
807.077393	134.000000
807.117981	133.600000
807.158508	131.800000
807.199097	132.000000
807.239624	130.800000
807.280212	131.600000
807.320740	132.800000
807.361267	133.400000
807.401855	135.600000
807.442383	135.600000
807.482910	134.600000
807.523437	134.200000
807.564087	134.800000
807.604614	132.800000
807.645142	132.400000
807.685730	133.600000
807.726257	133.000000
807.766724	133.000000
807.807251	134.200000
807.847839	134.400000
807.888367	135.400000
807.928894	135.400000
807.969482	134.600000
808.010010	133.400000
808.050537	133.200000
808.091064	132.800000
808.131653	133.000000
808.172119	135.000000
808.212646	134.800000
808.253235	135.800000
808.293762	134.000000
808.334229	134.000000
808.374756	133.000000
808.415344	133.400000
808.455872	133.800000
808.496338	134.800000
808.536926	134.800000
808.577454	135.400000
808.617920	135.400000
808.658447	135.400000
808.699036	134.800000
808.739502	136.200000
808.780029	135.400000
808.820557	135.400000
808.861084	135.200000
808.901611	136.000000
808.942078	135.000000
808.982666	134.200000
809.023132	134.800000
809.063660	133.000000
809.104187	132.400000
809.144714	133.000000
809.185181	133.800000
809.225647	134.200000
809.266235	135.200000
809.306702	135.200000
809.347229	134.000000
809.387756	133.400000
809.428223	132.400000
809.468750	132.800000
809.509216	133.800000
809.549744	133.000000
809.590271	134.200000
809.630737	134.000000
809.671265	134.000000
809.711731	134.600000
809.752258	136.200000
809.792725	136.400000
809.833252	136.400000
809.873718	136.800000
809.914246	135.400000
809.954773	134.600000
809.995239	135.400000
810.035706	135.600000
810.076172	135.600000
810.116699	135.800000
810.157166	135.800000
810.197632	134.200000
810.238159	135.200000
810.278687	135.600000
810.319153	135.000000
810.359619	136.200000
810.400146	135.400000
810.440613	135.200000
810.481079	133.200000
810.521606	133.800000
810.562012	133.600000
810.602478	133.600000
810.642944	132.400000
810.683472	133.800000
810.723938	133.800000
810.764404	133.600000
810.804932	135.400000
810.845398	136.400000
810.885864	135.800000
810.926270	136.400000
810.966797	136.000000
811.007263	135.800000
811.047729	135.600000
811.088196	136.400000
811.128662	136.800000
811.169128	136.200000
811.209595	135.600000
811.250061	136.000000
811.290527	136.000000
811.330994	135.600000
811.371460	136.200000
811.411926	137.200000
811.452393	135.800000
811.492798	136.000000
811.533325	136.400000
811.573730	136.400000
811.614197	136.400000
811.654663	136.600000
811.695129	137.000000
811.735535	136.200000
811.776001	136.200000
811.816467	134.800000
811.856934	134.800000
811.897339	134.800000
811.937866	134.400000
811.978271	134.800000
812.018738	135.400000
812.059143	136.200000
812.099609	136.000000
812.140076	136.200000
812.180481	136.400000
812.221008	135.600000
812.261414	136.600000
812.301819	135.000000
812.342224	136.000000
812.382751	135.800000
812.423157	135.400000
812.463562	135.200000
812.504089	135.400000
812.544495	135.600000
812.584900	135.800000
812.625305	136.800000
812.665771	135.600000
812.706177	136.600000
812.746643	136.200000
812.787109	134.600000
812.827515	133.800000
812.867920	134.000000
812.908325	134.000000
812.948792	134.200000
812.989197	134.800000
813.029602	136.000000
813.070068	135.800000
813.110474	135.200000
813.150879	133.400000
813.191284	134.000000
813.231750	134.600000
813.272156	135.400000
813.312561	136.800000
813.353027	137.400000
813.393433	137.800000
813.433838	138.200000
813.474243	137.200000
813.514709	137.200000
813.555054	137.000000
813.595459	136.200000
813.635925	134.400000
813.676331	135.000000
813.716736	133.800000
813.757080	134.600000
813.797546	135.000000
813.837952	135.000000
813.878357	135.000000
813.918762	135.000000
813.959167	134.800000
813.999573	135.000000
814.039978	134.600000
814.080383	135.400000
814.120789	135.400000
814.161133	135.400000
814.201599	135.000000
814.242004	135.400000
814.282349	134.600000
814.322754	134.200000
814.363159	134.600000
814.403564	133.400000
814.443909	134.600000
814.484375	134.400000
814.524719	135.400000
814.565125	136.400000
814.605469	137.400000
814.645935	137.400000
814.686279	136.600000
814.726685	136.000000
814.767090	134.600000
814.807434	134.600000
814.847839	134.000000
814.888184	134.000000
814.928650	135.800000
814.968994	135.600000
815.009338	135.000000
815.049744	134.600000
815.090149	135.400000
815.130493	134.600000
815.170837	135.000000
815.211304	135.800000
815.251648	135.000000
815.291992	134.800000
815.332397	134.400000
815.372742	134.200000
815.413086	133.800000
815.453491	134.000000
815.493896	134.200000
815.534241	133.600000
815.574585	133.200000
815.614990	133.800000
815.655334	134.400000
815.695679	135.600000
815.736023	134.800000
815.776428	136.200000
815.816772	135.800000
815.857117	135.600000
815.897522	134.200000
815.937866	135.000000
815.978210	134.200000
816.018555	133.800000
816.058960	135.000000
816.099304	135.400000
816.139648	135.400000
816.180054	135.800000
816.220398	135.800000
816.260681	136.000000
816.301025	134.600000
816.341431	133.800000
816.381775	133.000000
816.422119	133.600000
816.462524	132.000000
816.502808	133.400000
816.543152	134.200000
816.583496	133.600000
816.623840	134.000000
816.664185	134.800000
816.704529	134.200000
816.744934	135.000000
816.785217	135.400000
816.825562	135.400000
816.865845	134.600000
816.906250	134.000000
816.946594	133.200000
816.986877	133.800000
817.027283	133.600000
817.067566	134.000000
817.107910	136.000000
817.148193	136.200000
817.188599	136.400000
817.228882	136.200000
817.269226	136.800000
817.309570	137.000000
817.349915	135.600000
817.390198	135.800000
817.430542	135.000000
817.470886	134.800000
817.511169	134.000000
817.551514	135.600000
817.591858	136.600000
817.632202	137.400000
817.672485	136.600000
817.712769	135.200000
817.753113	134.400000
817.793457	133.200000
817.833740	133.000000
817.874084	133.800000
817.914368	134.000000
817.954712	135.400000
817.994995	134.000000
818.035339	133.200000
818.075623	133.800000
818.115906	135.000000
818.156311	135.000000
818.196594	135.800000
818.236877	136.600000
818.277161	136.200000
818.317505	136.400000
818.357788	135.800000
818.398071	135.400000
818.438416	136.200000
818.478699	135.400000
818.518982	134.600000
818.559265	134.200000
818.599609	135.400000
818.639893	135.200000
818.680176	135.400000
818.720459	135.200000
818.760803	134.800000
818.801086	133.800000
818.841370	133.200000
818.881714	132.800000
818.921997	133.200000
818.962219	132.800000
819.002502	133.600000
819.042847	133.400000
819.083130	134.000000
819.123413	134.200000
819.163696	134.800000
819.203979	134.600000
819.244263	134.400000
819.284546	135.200000
819.324829	134.600000
819.365112	134.600000
819.405396	134.200000
819.445679	134.400000
819.485962	133.800000
819.526245	134.000000
819.566467	134.600000
819.606812	134.800000
819.647034	134.800000
819.687317	134.800000
819.727600	134.000000
819.767883	134.200000
819.808167	134.400000
819.848389	134.800000
819.888733	135.000000
819.928955	136.200000
819.969238	136.600000
820.009460	136.400000
820.049805	137.600000
820.090027	136.600000
820.130249	137.400000
820.170593	135.800000
820.210815	135.000000
820.251099	134.000000
820.291321	133.800000
820.331604	133.600000
820.371887	133.600000
820.412109	134.000000
820.452393	133.800000
820.492615	134.400000
820.532898	134.600000
820.573120	135.000000
820.613403	136.400000
820.653625	136.000000
820.693909	135.800000
820.734192	134.400000
820.774414	135.200000
820.814636	134.800000
820.854858	134.800000
820.895142	135.000000
820.935364	135.200000
820.975647	134.600000
821.015930	134.200000
821.056152	133.600000
821.096375	135.200000
821.136597	135.600000
821.176880	135.400000
821.217102	134.400000
821.257324	135.600000
821.297607	134.600000
821.337830	134.400000
821.378052	135.600000
821.418274	135.200000
821.458496	135.000000
821.498718	134.400000
821.538940	134.800000
821.579224	135.200000
821.619446	136.000000
821.659668	136.800000
821.699890	136.000000
821.740112	135.400000
821.780334	133.800000
821.820557	134.600000
821.860840	134.600000
821.901001	135.000000
821.941223	135.200000
821.981445	135.400000
822.021729	134.800000
822.061890	134.200000
822.102112	134.600000
822.142395	135.400000
822.182556	135.800000
822.222778	136.400000
822.262939	135.200000
822.303223	135.400000
822.343445	134.200000
822.383606	133.000000
822.423889	133.400000
822.464050	133.800000
822.504272	133.800000
822.544434	134.000000
822.584717	134.400000
822.624878	134.200000
822.665100	134.800000
822.705322	135.200000
822.745544	135.400000
822.785706	137.000000
822.825867	135.600000
822.866150	135.000000
822.906311	134.600000
822.946533	134.200000
822.986755	132.800000
823.026917	133.200000
823.067139	133.200000
823.107300	133.000000
823.147522	133.000000
823.187683	133.800000
823.227905	133.800000
823.268127	135.400000
823.308289	135.200000
823.348450	135.600000
823.388611	134.800000
823.428894	134.800000
823.469055	134.600000
823.509216	135.000000
823.549438	135.600000
823.589600	136.200000
823.629761	137.200000
823.669922	136.200000
823.710144	135.000000
823.750305	134.600000
823.790466	134.000000
823.830688	133.800000
823.870850	133.800000
823.911011	134.400000
823.951172	133.600000
823.991394	133.400000
824.031555	133.800000
824.071716	133.400000
824.111938	135.400000
824.152100	136.200000
824.192261	137.200000
824.232422	136.400000
824.272644	136.800000
824.312744	136.400000
824.352905	135.400000
824.393127	135.800000
824.433289	134.800000
824.473450	135.400000
824.513550	135.400000
824.553772	136.200000
824.593933	136.200000
824.634094	137.000000
824.674255	137.000000
824.714417	136.600000
824.754578	136.200000
824.794678	136.800000
824.834900	136.000000
824.875061	136.600000
824.915161	134.600000
824.955383	135.400000
824.995483	133.200000
825.035645	134.400000
825.075745	133.400000
825.115967	134.600000
825.156067	134.400000
825.196228	134.600000
825.236389	134.200000
825.276550	134.800000
825.316650	134.200000
825.356812	134.200000
825.396973	134.600000
825.437134	135.800000
825.477234	134.200000
825.517395	134.600000
825.557556	134.600000
825.597656	135.600000
825.637756	135.400000
825.677979	135.600000
825.718079	136.200000
825.758179	135.200000
825.798401	134.000000
825.838501	133.400000
825.878601	133.200000
825.918701	133.600000
825.958923	133.600000
825.999023	133.400000
826.039124	132.000000
826.079285	132.600000
826.119385	131.600000
826.159485	132.400000
826.199646	134.000000
826.239807	134.800000
826.279907	135.800000
826.320007	136.000000
826.360168	135.400000
826.400269	135.200000
826.440369	134.800000
826.480469	134.800000
826.520630	134.600000
826.560730	135.000000
826.600830	134.400000
826.640991	134.600000
826.681091	134.200000
826.721191	134.000000
826.761292	135.200000
826.801453	134.400000
826.841492	135.000000
826.881592	134.200000
826.921753	134.600000
826.961853	134.400000
827.001953	135.000000
827.042053	135.600000
827.082153	135.000000
827.122253	135.800000
827.162354	134.800000
827.202515	134.200000
827.242554	134.400000
827.282654	135.000000
827.322754	134.400000
827.362854	134.800000
827.402954	135.400000
827.443054	134.800000
827.483154	135.200000
827.523254	135.400000
827.563354	134.400000
827.603394	135.000000
827.643555	134.600000
827.683594	135.000000
827.723694	135.400000
827.763794	136.600000
827.803894	136.800000
827.843933	136.600000
827.884033	136.400000
827.924133	135.800000
827.964233	135.200000
828.004272	134.800000
828.044434	134.400000
828.084473	135.600000
828.124512	134.800000
828.164612	134.800000
828.204712	134.000000
828.244751	134.200000
828.284851	134.200000
828.324951	134.800000
828.364990	135.800000
828.405090	135.000000
828.445129	135.600000
828.485229	133.800000
828.525269	133.200000
828.565369	133.400000
828.605469	134.600000
828.645508	135.200000
828.685547	135.000000
828.725586	136.400000
828.765686	135.800000
828.805786	135.000000
828.845825	134.800000
828.885925	135.000000
828.925964	135.800000
828.966003	135.200000
829.006042	135.800000
829.046143	135.400000
829.086182	135.200000
829.126221	134.800000
829.166321	134.800000
829.206360	136.000000
829.246399	135.200000
829.286438	136.000000
829.326538	135.400000
829.366577	136.400000
829.406616	135.800000
829.446655	136.600000
829.486694	136.400000
829.526733	135.600000
829.566772	134.600000
829.606873	135.200000
829.646912	134.200000
829.686890	135.200000
829.726990	134.400000
829.767029	134.400000
829.807068	132.600000
829.847046	133.000000
829.887146	132.600000
829.927185	133.800000
829.967163	134.600000
830.007263	135.000000
830.047302	135.000000
830.087280	135.000000
830.127319	134.800000
830.167419	134.200000
830.207397	134.800000
830.247437	136.200000
830.287476	135.400000
830.327515	135.000000
830.367493	135.400000
830.407532	135.000000
830.447571	134.800000
830.487610	135.800000
830.527588	136.800000
830.567688	136.200000
830.607666	136.000000
830.647705	135.800000
830.687683	134.800000
830.727722	135.600000
830.767761	135.200000
830.807739	136.200000
830.847839	134.600000
830.887817	134.600000
830.927795	133.200000
830.967773	134.600000
831.007874	134.400000
831.047852	135.400000
831.087830	136.800000
831.127930	136.600000
831.167908	135.600000
831.207886	135.200000
831.247864	135.400000
831.287903	135.200000
831.327881	135.400000
831.367920	135.800000
831.407959	135.000000
831.447937	135.000000
831.487915	135.000000
831.527893	135.400000
831.567932	135.800000
831.607910	136.400000
831.647888	136.200000
831.687927	135.200000
831.727905	134.600000
831.767883	135.000000
831.807861	134.600000
831.847900	135.000000
831.887878	134.400000
831.927856	134.800000
831.967896	134.200000
832.007874	134.600000
832.047852	134.600000
832.087769	136.400000
832.127808	137.200000
832.167786	137.000000
832.207764	137.000000
832.247803	137.200000
832.287781	136.000000
832.327698	135.400000
832.367676	135.000000
832.407715	135.800000
832.447693	135.200000
832.487610	135.400000
832.527649	135.800000
832.567627	136.200000
832.607544	136.800000
832.647522	136.200000
832.687561	136.600000
832.727478	136.200000
832.767456	136.200000
832.807434	135.600000
832.847412	135.800000
832.887329	136.600000
832.927307	136.200000
832.967346	136.600000
833.007263	135.600000
833.047241	136.400000
833.087219	135.600000
833.127136	135.800000
833.167114	136.600000
833.207031	136.600000
833.247070	136.000000
833.286987	135.000000
833.326965	135.600000
833.366943	134.400000
833.406860	134.600000
833.446838	135.600000
833.486755	135.800000
833.526733	135.000000
833.566711	135.200000
833.606628	135.600000
833.646606	135.400000
833.686523	135.400000
833.726501	136.000000
833.766418	134.800000
833.806396	133.200000
833.846313	132.400000
833.886230	132.600000
833.926208	132.800000
833.966187	133.000000
834.006104	135.400000
834.046021	135.600000
834.085999	135.600000
834.125916	134.600000
834.165833	135.200000
834.205811	134.600000
834.245728	134.600000
834.285645	134.200000
834.325562	134.000000
834.365540	133.400000
834.405457	133.400000
834.445374	134.200000
834.485352	135.400000
834.525269	135.200000
834.565186	136.400000
834.605103	135.600000
834.645081	134.800000
834.684937	133.800000
834.724854	134.400000
834.764832	134.400000
834.804749	134.000000
834.844666	134.400000
834.884521	134.800000
834.924500	135.200000
834.964417	134.600000
835.004333	134.600000
835.044250	135.800000
835.084167	135.400000
835.124084	135.400000
835.163940	135.600000
835.203918	136.400000
835.243835	135.800000
835.283691	136.800000
835.323669	136.800000
835.363586	136.800000
835.403442	137.200000
835.443359	137.600000
835.483276	136.800000
835.523193	136.800000
835.563049	135.800000
835.603027	136.200000
835.642883	134.400000
835.682800	135.000000
835.722656	135.000000
835.762634	135.600000
835.802490	135.000000
835.842346	135.200000
835.882324	135.600000
835.922180	135.400000
835.962097	135.800000
836.001953	135.800000
836.041870	136.200000
836.081787	136.800000
836.121643	137.000000
836.161560	137.000000
836.201416	137.200000
836.241333	137.200000
836.281189	136.000000
836.321106	135.400000
836.360962	136.000000
836.400879	135.400000
836.440796	135.400000
836.480652	135.400000
836.520508	135.000000
836.560364	134.600000
836.600281	134.600000
836.640137	134.600000
836.679993	133.600000
836.719910	135.200000
836.759827	134.400000
836.799683	134.800000
836.839539	135.800000
836.879456	136.400000
836.919312	136.000000
836.959167	136.000000
836.999023	135.800000
837.038879	134.000000
837.078735	133.800000
837.118591	133.800000
837.158508	133.600000
837.198364	133.800000
837.238220	135.000000
837.278137	134.600000
837.317993	133.600000
837.357788	134.600000
837.397644	135.200000
837.437561	134.200000
837.477417	136.200000
837.517212	136.200000
837.557129	136.200000
837.596985	137.200000
837.636841	137.400000
837.676636	137.600000
837.716553	137.600000
837.756409	137.600000
837.796204	136.400000
837.836121	137.000000
837.875977	135.600000
837.915771	137.000000
837.955627	137.200000
837.995483	136.200000
838.035339	136.400000
838.075134	136.000000
838.115051	135.000000
838.154846	134.600000
838.194702	135.200000
838.234497	135.600000
838.274414	135.800000
838.314209	135.600000
838.354065	135.000000
838.393921	134.600000
838.433716	134.000000
838.473572	134.200000
838.513367	135.400000
838.553284	135.200000
838.593079	135.400000
838.632874	135.200000
838.672729	134.400000
838.712585	133.800000
838.752380	135.200000
838.792175	136.200000
838.832031	135.800000
838.871887	136.200000
838.911682	135.600000
838.951538	134.800000
838.991333	134.800000
839.031128	134.600000
839.070984	135.000000
839.110840	134.600000
839.150635	134.000000
839.190430	133.000000
839.230225	133.400000
839.270081	134.400000
839.309875	135.200000
839.349670	137.000000
839.389526	137.200000
839.429321	137.400000
839.469116	136.600000
839.508911	136.800000
839.548767	136.600000
839.588562	136.000000
839.628357	136.200000
839.668213	135.200000
839.708008	135.200000
839.747803	134.600000
839.787537	135.200000
839.827393	135.600000
839.867187	135.800000
839.906982	134.800000
839.946838	134.200000
839.986633	134.400000
840.026367	133.800000
840.066162	134.800000
840.106018	136.800000
840.145752	136.600000
840.185547	136.800000
840.225342	136.800000
840.265198	136.800000
840.304932	136.400000
840.344727	137.000000
840.384521	137.200000
840.424316	136.400000
840.464111	135.600000
840.503845	135.200000
840.543701	134.800000
840.583435	134.400000
840.623230	135.200000
840.663025	136.400000
840.702820	135.400000
840.742554	135.000000
840.782349	134.600000
840.822144	134.400000
840.861938	134.400000
840.901672	135.400000
840.941528	136.800000
840.981262	136.600000
841.020996	137.400000
841.060791	137.400000
841.100586	136.400000
841.140320	136.400000
841.180115	136.000000
841.219910	135.600000
841.259644	134.600000
841.299377	135.000000
841.339172	135.000000
841.378967	134.800000
841.418701	135.000000
841.458435	134.000000
841.498291	135.000000
841.538025	134.000000
841.577759	134.200000
841.617493	134.200000
841.657288	135.400000
841.697021	135.200000
841.736755	134.600000
841.776550	135.200000
841.816284	134.000000
841.856079	133.400000
841.895813	133.400000
841.935608	134.000000
841.975342	135.000000
842.015076	135.200000
842.054810	135.600000
842.094543	134.400000
842.134277	134.600000
842.174011	134.200000
842.213806	135.600000
842.253540	137.000000
842.293274	137.400000
842.333069	137.200000
842.372803	136.000000
842.412476	134.000000
842.452209	133.800000
842.492004	133.200000
842.531738	134.600000
842.571472	135.200000
842.611206	136.000000
842.650940	135.200000
842.690674	136.400000
842.730347	136.000000
842.770142	135.400000
842.809875	136.800000
842.849548	136.200000
842.889343	135.000000
842.929077	135.200000
842.968750	136.400000
843.008484	136.200000
843.048218	136.600000
843.087952	137.600000
843.127686	136.400000
843.167419	135.800000
843.207153	135.400000
843.246826	134.600000
843.286560	135.200000
843.326294	135.400000
843.365967	135.000000
843.405701	134.200000
843.445435	134.200000
843.485168	134.800000
843.524841	134.200000
843.564514	135.600000
843.604309	135.000000
843.643982	136.200000
843.683655	135.200000
843.723450	136.200000
843.763123	135.200000
843.802795	136.000000
843.842529	135.000000
843.882263	133.600000
843.921936	133.200000
843.961609	133.200000
844.001343	133.000000
844.041077	134.200000
844.080750	134.600000
844.120422	135.600000
844.160156	134.800000
844.199829	135.800000
844.239502	135.400000
844.279236	135.800000
844.318909	136.200000
844.358582	136.400000
844.398254	135.800000
844.437988	135.200000
844.477661	134.800000
844.517334	133.800000
844.557068	133.400000
844.596741	134.200000
844.636414	133.400000
844.676086	134.000000
844.715820	133.400000
844.755493	134.600000
844.795166	134.800000
844.834900	136.200000
844.874573	136.400000
844.914185	135.800000
844.953857	135.800000
844.993591	134.200000
845.033264	133.600000
845.072937	133.400000
845.112610	133.800000
845.152283	133.600000
845.191956	134.000000
845.231567	134.800000
845.271301	135.000000
845.310974	135.200000
845.350586	135.600000
845.390320	135.600000
845.429993	136.000000
845.469604	135.600000
845.509277	134.800000
845.548950	135.000000
845.588623	136.000000
845.628296	136.000000
845.667969	136.200000
845.707642	138.000000
845.747253	137.400000
845.786926	136.200000
845.826599	136.000000
845.866211	135.800000
845.905884	136.200000
845.945557	136.000000
845.985229	135.800000
846.024841	134.400000
846.064453	135.200000
846.104187	133.400000
846.143799	133.000000
846.183411	134.600000
846.223145	135.000000
846.262756	134.600000
846.302368	134.600000
846.342041	135.400000
846.381714	135.000000
846.421326	135.200000
846.460937	135.600000
846.500610	135.400000
846.540283	136.000000
846.579895	135.800000
846.619507	136.000000
846.659180	136.200000
846.698792	137.000000
846.738403	137.800000
846.778076	138.000000
846.817688	139.000000
846.857300	137.400000
846.896912	138.000000
846.936584	136.600000
846.976196	136.200000
847.015808	136.200000
847.055481	135.800000
847.095093	135.800000
847.134705	136.600000
847.174316	135.800000
847.213989	136.600000
847.253601	137.600000
847.293213	138.200000
847.332886	136.000000
847.372498	136.800000
847.412048	135.000000
847.451660	135.000000
847.491333	134.600000
847.530945	135.200000
847.570557	136.600000
847.610168	135.200000
847.649780	136.000000
847.689392	134.600000
847.728943	134.600000
847.768616	133.600000
847.808228	133.600000
847.847778	134.200000
847.887451	134.600000
847.927063	135.400000
847.966614	134.600000
848.006226	135.800000
848.045898	136.000000
848.085449	136.200000
848.125061	135.800000
848.164673	136.200000
848.204285	136.000000
848.243835	135.200000
848.283447	135.000000
848.323059	135.000000
848.362610	134.400000
848.402222	135.800000
848.441833	134.200000
848.481445	134.600000
848.520996	134.600000
848.560547	135.200000
848.600220	135.000000
848.639771	136.000000
848.679321	136.200000
848.718994	136.200000
848.758545	136.000000
848.798096	136.600000
848.837708	136.000000
848.877319	137.000000
848.916870	136.800000
848.956421	136.600000
848.996033	136.200000
849.035645	136.400000
849.075195	136.000000
849.114746	137.000000
849.154358	137.800000
849.193909	135.600000
849.233459	135.800000
849.273071	134.400000
849.312622	133.000000
849.352173	132.400000
849.391724	133.400000
849.431335	133.800000
849.470886	133.400000
849.510437	134.000000
849.550049	134.200000
849.589600	134.000000
849.629150	134.200000
849.668701	134.000000
849.708313	135.400000
849.747864	135.000000
849.787415	135.400000
849.827026	135.200000
849.866577	136.000000
849.906067	135.600000
849.945618	135.000000
849.985229	135.400000
850.024780	134.800000
850.064270	134.800000
850.103882	133.600000
850.143433	134.400000
850.182983	134.800000
850.222473	135.000000
850.262085	135.400000
850.301636	134.800000
850.341125	134.600000
850.380737	134.400000
850.420288	134.600000
850.459778	134.600000
850.499329	134.600000
850.538879	135.200000
850.578430	134.400000
850.617920	134.200000
850.657532	134.200000
850.697021	134.600000
850.736572	134.200000
850.776062	134.600000
850.815674	133.800000
850.855164	133.400000
850.894714	133.400000
850.934265	134.000000
850.973755	133.800000
851.013306	135.800000
851.052795	135.200000
851.092407	135.200000
851.131897	134.600000
851.171387	134.400000
851.210937	134.200000
851.250488	134.200000
851.289978	134.600000
851.329468	134.000000
851.369019	133.800000
851.408569	133.800000
851.448059	134.800000
851.487610	135.200000
851.527100	135.200000
851.566589	136.200000
851.606079	135.200000
851.645691	134.400000
851.685181	134.800000
851.724670	135.400000
851.764221	135.000000
851.803711	134.600000
851.843201	135.800000
851.882690	134.600000
851.922241	134.600000
851.961731	135.000000
852.001221	135.600000
852.040771	136.000000
852.080261	136.400000
852.119751	136.600000
852.159241	136.200000
852.198792	136.000000
852.238220	135.000000
852.277710	134.800000
852.317261	135.200000
852.356750	133.400000
852.396240	133.400000
852.435730	133.600000
852.475220	133.600000
852.514709	134.400000
852.554199	136.200000
852.593750	136.800000
852.633179	135.800000
852.672668	137.200000
852.712158	136.800000
852.751648	135.600000
852.791138	136.000000
852.830627	135.800000
852.870117	134.600000
852.909607	133.600000
852.949036	134.400000
852.988525	134.800000
853.028015	135.600000
853.067505	137.200000
853.106995	136.000000
853.146484	137.800000
853.185974	135.600000
853.225403	135.400000
853.264832	134.400000
853.304382	135.800000
853.343811	134.800000
853.383301	135.000000
853.422791	136.000000
853.462280	135.800000
853.501709	135.400000
853.541138	135.800000
853.580688	136.200000
853.620117	136.400000
853.659546	135.600000
853.699036	135.400000
853.738525	134.200000
853.777954	134.200000
853.817383	134.000000
853.856873	134.800000
853.896362	135.800000
853.935791	135.000000
853.975281	136.000000
854.014709	134.600000
854.054138	134.200000
854.093567	134.000000
854.133057	134.200000
854.172546	133.800000
854.211975	133.400000
854.251465	133.200000
854.290894	133.400000
854.330322	134.600000
854.369751	134.600000
854.409241	135.000000
854.448669	135.800000
854.488098	133.800000
854.527588	132.400000
854.566956	132.000000
854.606384	131.800000
854.645813	132.000000
854.685303	133.600000
854.724731	135.200000
854.764160	135.000000
854.803650	136.600000
854.843079	137.400000
854.882446	136.000000
854.921875	136.200000
854.961365	136.400000
855.000793	135.200000
855.040161	133.600000
855.079651	134.600000
855.119080	134.600000
855.158447	135.000000
855.197876	136.200000
855.237366	135.200000
855.276733	135.600000
855.316162	134.400000
855.355652	133.600000
855.395020	133.200000
855.434448	134.000000
855.473816	134.600000
855.513306	134.800000
855.552673	135.200000
855.592102	135.000000
855.631531	135.200000
855.670959	134.600000
855.710327	133.600000
855.749756	135.000000
855.789185	133.000000
855.828613	133.800000
855.867981	134.200000
855.907410	135.400000
855.946838	134.200000
855.986206	135.600000
856.025574	135.400000
856.065063	134.800000
856.104431	135.000000
856.143799	135.200000
856.183228	135.000000
856.222656	134.600000
856.262024	134.600000
856.301392	135.000000
856.340820	135.400000
856.380249	136.200000
856.419617	136.400000
856.459045	136.400000
856.498413	135.600000
856.537781	134.000000
856.577148	134.600000
856.616577	134.400000
856.655945	134.200000
856.695312	135.000000
856.734741	135.200000
856.774109	135.200000
856.813477	135.200000
856.852844	135.000000
856.892273	134.200000
856.931641	135.000000
856.971008	134.600000
857.010437	134.200000
857.049805	135.400000
857.089172	135.200000
857.128540	135.000000
857.167969	134.600000
857.207336	134.400000
857.246643	134.600000
857.286072	134.400000
857.325439	135.400000
857.364807	134.800000
857.404175	135.200000
857.443542	134.000000
857.482910	134.400000
857.522278	134.200000
857.561646	134.000000
857.601013	135.200000
857.640381	134.600000
857.679687	135.200000
857.719116	135.200000
857.758484	136.800000
857.797791	136.600000
857.837219	136.600000
857.876526	136.400000
857.915894	135.400000
857.955200	134.400000
857.994629	132.600000
858.033936	133.200000
858.073303	132.800000
858.112671	132.000000
858.152039	133.000000
858.191345	133.600000
858.230713	133.400000
858.270081	135.000000
858.309387	134.600000
858.348755	134.600000
858.388123	134.000000
858.427490	133.400000
858.466797	130.400000
858.506104	131.600000
858.545471	131.400000
858.584839	132.800000
858.624146	134.600000
858.663513	135.600000
858.702820	136.200000
858.742187	135.400000
858.781494	134.600000
858.820862	134.000000
858.860168	135.000000
858.899475	135.600000
858.938843	135.000000
858.978210	135.800000
859.017517	136.400000
859.056824	135.800000
859.096130	135.200000
859.135498	135.800000
859.174805	135.400000
859.214172	133.200000
859.253479	133.200000
859.292786	133.200000
859.332092	133.200000
859.371399	134.200000
859.410767	135.200000
859.450073	135.400000
859.489380	134.400000
859.528687	135.600000
859.567993	135.000000
859.607300	134.400000
859.646606	135.000000
859.685974	135.400000
859.725220	134.400000
859.764587	133.800000
859.803894	134.000000
859.843201	134.000000
859.882507	134.800000
859.921753	135.800000
859.961121	136.000000
860.000427	137.400000
860.039734	136.600000
860.079041	0.000000
860.118347	0.000000
860.157593	0.000000
860.196899	0.000000
860.236206	0.000000
860.275513	0.000000
860.314880	0.000000
860.354126	0.000000
860.393433	0.000000
860.432678	0.000000
860.471985	0.000000
860.511292	0.000000
860.550598	0.000000
860.589905	0.000000
860.629150	0.000000
860.668457	0.000000
860.707703	0.000000
860.747009	0.000000
860.786316	0.000000
860.825562	0.000000
860.864929	0.000000
860.904175	0.000000
860.943420	0.000000
860.982666	0.000000
861.021973	0.000000
861.061279	0.000000
861.100525	0.000000
861.139832	0.000000
861.179138	0.000000
861.218384	0.000000
861.257629	0.000000
861.296875	0.000000
861.336182	0.000000
861.375427	0.000000
861.414734	0.000000
861.453979	0.000000
861.493286	0.000000
861.532532	0.000000
861.571777	0.000000
861.611084	0.000000
861.650330	0.000000
861.689636	0.000000
861.728882	0.000000
861.768127	0.000000
861.807312	0.000000
861.846558	0.000000
861.885864	0.000000
861.925110	0.000000
861.964417	0.000000
862.003662	0.000000
862.042908	0.000000
862.082153	0.000000
862.121338	0.000000
862.160645	0.000000
862.199890	0.000000
862.239197	0.000000
862.278381	0.000000
862.317627	0.000000
862.356873	0.000000
862.396057	0.000000
862.435364	0.000000
862.474609	0.000000
862.513855	0.000000
862.553101	0.000000
862.592346	0.000000
862.631531	0.000000
862.670776	0.000000
862.710022	0.000000
862.749268	0.000000
862.788513	0.000000
862.827759	0.000000
862.866943	0.000000
862.906189	0.000000
862.945374	0.000000
862.984680	0.000000
863.023865	0.000000
863.063171	0.000000
863.102356	0.000000
863.141541	0.000000
863.180786	0.000000
863.219971	0.000000
863.259216	0.000000
863.298462	0.000000
863.337708	0.000000
863.376892	0.000000
863.416138	0.000000
863.455322	0.000000
863.494507	0.000000
863.533752	0.000000
863.572937	0.000000
863.612244	0.000000
863.651428	0.000000
863.690613	0.000000
863.729797	0.000000
863.768982	0.000000
863.808228	0.000000
863.847412	0.000000
863.886597	0.000000
863.925842	0.000000
863.965088	0.000000
864.004272	0.000000
864.043457	0.000000
864.082703	0.000000
864.121826	0.000000
864.161011	0.000000
864.200256	0.000000
864.239441	0.000000
864.278625	0.000000
864.317810	0.000000
864.357056	0.000000
864.396240	0.000000
864.435425	0.000000
864.474609	0.000000
864.513794	0.000000
864.552979	0.000000
864.592163	0.000000
864.631409	0.000000
864.670532	0.000000
864.709717	0.000000
864.748962	0.000000
864.788086	0.000000
864.827271	0.000000
864.866455	0.000000
864.905640	0.000000
864.944824	0.000000
864.984009	0.000000
865.023193	0.000000
865.062378	0.000000
865.101501	0.000000
865.140686	0.000000
865.179871	0.000000
865.219055	0.000000
865.258179	0.000000
865.297424	0.000000
865.336548	0.000000
865.375732	0.000000
865.414856	0.000000
865.454041	0.000000
865.493225	0.000000
865.532349	0.000000
865.571594	0.000000
865.610718	0.000000
865.649841	0.000000
865.689026	0.000000
865.728210	0.000000
865.767334	0.000000
865.806458	0.000000
865.845703	0.000000
865.884827	0.000000
865.923950	0.000000
865.963074	0.000000
866.002258	0.000000
866.041443	0.000000
866.080566	0.000000
866.119751	0.000000
866.158875	0.000000
866.197998	0.000000
866.237122	0.000000
866.276306	0.000000
866.315430	0.000000
866.354553	0.000000
866.393738	0.000000
866.432861	0.000000
866.471985	0.000000
866.511108	0.000000
866.550293	0.000000
866.589417	0.000000
866.628540	0.000000
866.667725	0.000000
866.706848	0.000000
866.745972	0.000000
866.785034	0.000000
866.824219	0.000000
866.863342	0.000000
866.902466	0.000000
866.941650	0.000000
866.980713	0.000000
867.019836	0.000000
867.058960	0.000000
867.098145	0.000000
867.137207	0.000000
867.176331	0.000000
867.215515	0.000000
867.254578	0.000000
867.293701	0.000000
867.332764	0.000000
867.371948	0.000000
867.411072	0.000000
867.450134	0.000000
867.489319	0.000000
867.528381	0.000000
867.567505	0.000000
867.606567	0.000000
867.645752	0.000000
867.684814	0.000000
867.723938	0.000000
867.763062	0.000000
867.802185	0.000000
867.841248	0.000000
867.880310	0.000000
867.919495	0.000000
867.958557	0.000000
867.997620	0.000000
868.036804	0.000000
868.075867	0.000000
868.114929	0.000000
868.154053	0.000000
868.193176	0.000000
868.232239	0.000000
868.271301	0.000000
868.310425	0.000000
868.349548	0.000000
868.388611	0.000000
868.427673	0.000000
868.466797	0.000000
868.505859	0.000000
868.544922	0.000000
868.584045	0.000000
868.623108	0.000000
868.662170	0.000000
868.701233	0.000000
868.740356	0.000000
868.779419	0.000000
868.818481	0.000000
868.857605	0.000000
868.896667	0.000000
868.935730	0.000000
868.974792	0.000000
869.013916	0.000000
869.052979	0.000000
869.092041	0.000000
869.131165	0.000000
869.170227	0.000000
869.209229	0.000000
869.248291	0.000000
869.287415	0.000000
869.326477	0.000000
869.365479	0.000000
869.404602	0.000000
869.443665	0.000000
869.482727	0.000000
869.521729	0.000000
869.560852	0.000000
869.599915	0.000000
869.638916	0.000000
869.678040	0.000000
869.717041	0.000000
869.756104	0.000000
869.795166	0.000000
869.834229	0.000000
869.873291	0.000000
869.912292	0.000000
869.951416	0.000000
869.990417	0.000000
870.029480	0.000000
870.068481	0.000000
870.107605	0.000000
870.146606	0.000000
870.185608	0.000000
870.224731	0.000000
870.263733	0.000000
870.302734	0.000000
870.341797	0.000000
870.380859	0.000000
870.419861	0.000000
870.458923	0.000000
870.497986	0.000000
870.536987	0.000000
870.575989	0.000000
870.615051	0.000000
870.654114	0.000000
870.693115	0.000000
870.732117	0.000000
870.771179	0.000000
870.810242	0.000000
870.849243	0.000000
870.888245	0.000000
870.927307	0.000000
870.966309	0.000000
871.005310	0.000000
871.044373	0.000000
871.083374	0.000000
871.122375	0.000000
871.161377	0.000000
871.200439	0.000000
871.239441	0.000000
871.278442	0.000000
871.317505	0.000000
871.356506	0.000000
871.395508	0.000000
871.434448	0.000000
871.473511	0.000000
871.512512	0.000000
871.551514	0.000000
871.590576	0.000000
871.629578	0.000000
871.668518	0.000000
871.707520	0.000000
871.746582	0.000000
871.785522	0.000000
871.824524	0.000000
871.863586	0.000000
871.902588	0.000000
871.941528	0.000000
871.980530	0.000000
872.019531	0.000000
872.058533	0.000000
872.097534	0.000000
872.136536	0.000000
872.175537	0.000000
872.214478	0.000000
872.253479	0.000000
872.292480	0.000000
872.331482	0.000000
872.370422	0.000000
872.409485	0.000000
872.448425	0.000000
872.487427	0.000000
872.526367	0.000000
872.565369	0.000000
872.604370	0.000000
872.643311	0.000000
872.682312	0.000000
872.721313	0.000000
872.760254	0.000000
872.799194	0.000000
872.838257	0.000000
872.877197	0.000000
872.916138	0.000000
872.955139	0.000000
872.994080	0.000000
873.033081	0.000000
873.072021	0.000000
873.111023	0.000000
873.149963	0.000000
873.188904	0.000000
873.227905	0.000000
873.266846	0.000000
873.305786	0.000000
873.344727	0.000000
873.383789	0.000000
873.422729	0.000000
873.461670	0.000000
873.500671	0.000000
873.539551	0.000000
873.578491	0.000000
873.617432	0.000000
873.656433	0.000000
873.695374	0.000000
873.734314	0.000000
873.773315	0.000000
873.812256	0.000000
873.851196	0.000000
873.890076	0.000000
873.929077	0.000000
873.968018	0.000000
874.006958	0.000000
874.045959	0.000000
874.084839	0.000000
874.123779	0.000000
874.162720	0.000000
874.201660	0.000000
874.240601	0.000000
874.279541	0.000000
874.318481	0.000000
874.357422	0.000000
874.396301	0.000000
874.435242	0.000000
874.474243	0.000000
874.513123	0.000000
874.552063	0.000000
874.591003	0.000000
874.629944	0.000000
874.668823	0.000000
874.707764	0.000000
874.746704	0.000000
874.785645	0.000000
874.824524	0.000000
874.863464	0.000000
874.902405	0.000000
874.941284	0.000000
874.980164	0.000000
875.019165	0.000000
875.058044	0.000000
875.096924	0.000000
875.135925	0.000000
875.174805	0.000000
875.213684	0.000000
875.252563	0.000000
875.291565	0.000000
875.330444	0.000000
875.369324	0.000000
875.408264	0.000000
875.447144	0.000000
875.486023	0.000000
875.524902	0.000000
875.563904	0.000000
875.602783	0.000000
875.641663	0.000000
875.680603	0.000000
875.719482	0.000000
875.758362	0.000000
875.797241	0.000000
875.836182	0.000000
875.875061	0.000000
875.913940	0.000000
875.952881	0.000000
875.991699	0.000000
876.030579	0.000000
876.069458	0.000000
876.108337	0.000000
876.147278	0.000000
876.186157	0.000000
876.225098	0.000000
876.263916	0.000000
876.302795	0.000000
876.341675	0.000000
876.380554	0.000000
876.419434	0.000000
876.458313	0.000000
876.497253	0.000000
876.536072	0.000000
876.574951	0.000000
876.613831	0.000000
876.652649	0.000000
876.691589	0.000000
876.730469	0.000000
876.769348	0.000000
876.808228	0.000000
876.847046	0.000000
876.885925	0.000000
876.924744	0.000000
876.963684	0.000000
877.002502	0.000000
877.041443	0.000000
877.080261	0.000000
877.119141	0.000000
877.157959	0.000000
877.196777	0.000000
877.235718	0.000000
877.274536	0.000000
877.313416	0.000000
877.352295	0.000000
877.391113	0.000000
877.429932	0.000000
877.468811	0.000000
877.507690	0.000000
877.546509	0.000000
877.585388	0.000000
877.624207	0.000000
877.663086	0.000000
877.701904	0.000000
877.740723	0.000000
877.779602	0.000000
877.818420	0.000000
877.857300	0.000000
877.896118	0.000000
877.934937	0.000000
877.973755	0.000000
878.012634	0.000000
878.051514	0.000000
878.090332	0.000000
878.129211	0.000000
878.167969	0.000000
878.206787	0.000000
878.245605	0.000000
878.284424	0.000000
878.323303	0.000000
878.362122	0.000000
878.401001	0.000000
878.439819	0.000000
878.478638	0.000000
878.517395	0.000000
878.556213	0.000000
878.595093	0.000000
878.633911	0.000000
878.672729	0.000000
878.711548	0.000000
878.750366	0.000000
878.789185	0.000000
878.827942	0.000000
878.866821	0.000000
878.905640	0.000000
878.944458	0.000000
878.983276	0.000000
879.022034	0.000000
879.060852	0.000000
879.099670	0.000000
879.138489	0.000000
879.177307	0.000000
879.216125	0.000000
879.254944	0.000000
879.293701	0.000000
879.332520	0.000000
879.371277	0.000000
879.410095	0.000000
879.448914	0.000000
879.487732	0.000000
879.526550	0.000000
879.565308	0.000000
879.604065	0.000000
879.642883	0.000000
879.681702	0.000000
879.720459	0.000000
879.759277	0.000000
879.798096	0.000000
879.836853	0.000000
879.875610	0.000000
879.914368	0.000000
879.953247	0.000000
879.992004	0.000000
880.030823	0.000000
880.069580	0.000000
880.108337	0.000000
880.147095	0.000000
880.185852	0.000000
880.224670	0.000000
880.263428	0.000000
880.302246	0.000000
880.341003	0.000000
880.379761	0.000000
880.418518	0.000000
880.457275	0.000000
880.496094	0.000000
880.534851	0.000000
880.573669	0.000000
880.612427	0.000000
880.651184	0.000000
880.689941	0.000000
880.728699	0.000000
880.767517	0.000000
880.806213	0.000000
880.845032	0.000000
880.883789	0.000000
880.922546	0.000000
880.961243	0.000000
881.000000	0.000000
881.038818	0.000000
881.077576	0.000000
881.116333	0.000000
881.155090	0.000000
881.193848	0.000000
881.232544	0.000000
881.271301	0.000000
881.310059	0.000000
881.348816	0.000000
881.387573	0.000000
881.426331	0.000000
881.465088	0.000000
881.503784	0.000000
881.542542	0.000000
881.581299	0.000000
881.619995	0.000000
881.658813	0.000000
881.697510	0.000000
881.736267	0.000000
881.774963	0.000000
881.813721	0.000000
881.852478	0.000000
881.891174	0.000000
881.929993	0.000000
881.968689	0.000000
882.007385	0.000000
882.046082	0.000000
882.084839	0.000000
882.123596	0.000000
882.162292	0.000000
882.201050	0.000000
882.239746	0.000000
882.278503	0.000000
