Model Number: SPM-001-M   
Serial Number: 10090201
Firmware Version: 004.17.6
Exposure Time: 500000.000000us
Data Taken on: 17-08-2020 11:47:23.188
Wavelength	Amplitude
733.770752	0.000000
733.808716	0.000000
733.846619	0.000000
733.884583	0.000000
733.922546	0.000000
733.960449	0.000000
733.998413	0.000000
734.036377	0.000000
734.074219	0.000000
734.112183	0.000000
734.150085	0.000000
734.188049	0.000000
734.226013	0.000000
734.263916	0.000000
734.301819	0.000000
734.339783	0.000000
734.377686	0.000000
734.415588	0.000000
734.453552	0.000000
734.491455	0.000000
734.529419	0.000000
734.567322	0.000000
734.605225	0.000000
734.643127	0.000000
734.681091	0.000000
734.718994	0.000000
734.756897	0.000000
734.794800	0.000000
734.832703	0.000000
734.870667	0.000000
734.908508	0.000000
734.946472	0.000000
734.984375	0.000000
735.022278	0.000000
735.060181	0.000000
735.098083	0.000000
735.135986	0.000000
735.173889	0.000000
735.211792	0.000000
735.249695	0.000000
735.287598	0.000000
735.325439	0.000000
735.363403	0.000000
735.401306	0.000000
735.439148	0.000000
735.477051	0.000000
735.515015	0.000000
735.552856	0.000000
735.590759	0.000000
735.628662	0.000000
735.666504	0.000000
735.704407	0.000000
735.742310	0.000000
735.780212	0.000000
735.818115	0.000000
735.856018	0.000000
735.893860	0.000000
735.931763	0.000000
735.969604	0.000000
736.007507	0.000000
736.045410	0.000000
736.083252	0.000000
736.121094	0.000000
736.158997	0.000000
736.196838	0.000000
736.234741	0.000000
736.272644	0.000000
736.310486	0.000000
736.348389	0.000000
736.386230	0.000000
736.424072	0.000000
736.461975	0.000000
736.499878	0.000000
736.537720	0.000000
736.575562	0.000000
736.613403	0.000000
736.651306	0.000000
736.689148	0.000000
736.726990	0.000000
736.764893	0.000000
736.802734	0.000000
736.840576	0.000000
736.878418	0.000000
736.916321	0.000000
736.954102	0.000000
736.992004	0.000000
737.029846	0.000000
737.067688	0.000000
737.105530	0.000000
737.143372	0.000000
737.181213	0.000000
737.219116	0.000000
737.256897	0.000000
737.294739	0.000000
737.332642	0.000000
737.370422	0.000000
737.408325	0.000000
737.446167	0.000000
737.483948	0.000000
737.521790	0.000000
737.559692	0.000000
737.597473	0.000000
737.635315	0.000000
737.673157	0.000000
737.710999	0.000000
737.748840	0.000000
737.786621	0.000000
737.824463	0.000000
737.862305	0.000000
737.900085	0.000000
737.937927	0.000000
737.975769	0.000000
738.013550	0.000000
738.051392	0.000000
738.089233	0.000000
738.127014	0.000000
738.164856	0.000000
738.202698	0.000000
738.240479	0.000000
738.278320	0.000000
738.316162	0.000000
738.353943	0.000000
738.391785	0.000000
738.429565	0.000000
738.467407	0.000000
738.505188	0.000000
738.542969	0.000000
738.580811	0.000000
738.618652	0.000000
738.656372	0.000000
738.694214	0.000000
738.732056	0.000000
738.769836	0.000000
738.807617	0.000000
738.845459	0.000000
738.883240	0.000000
738.921021	0.000000
738.958862	0.000000
738.996582	0.000000
739.034424	0.000000
739.072205	0.000000
739.109985	0.000000
739.147827	0.000000
739.185547	0.000000
739.223389	0.000000
739.261169	0.000000
739.298889	0.000000
739.336731	0.000000
739.374512	0.000000
739.412292	0.000000
739.450073	0.000000
739.487854	0.000000
739.525635	0.000000
739.563416	0.000000
739.601135	0.000000
739.638977	0.000000
739.676758	0.000000
739.714478	0.000000
739.752258	0.000000
739.790100	0.000000
739.827820	0.000000
739.865601	0.000000
739.903381	0.000000
739.941101	0.000000
739.978882	209.000000
740.016724	204.000000
740.054443	206.000000
740.092224	205.000000
740.130005	206.000000
740.167725	198.000000
740.205505	202.000000
740.243225	215.000000
740.281006	207.000000
740.318787	201.000000
740.356506	205.000000
740.394287	209.000000
740.432068	199.000000
740.469727	199.000000
740.507507	209.000000
740.545288	203.000000
740.583008	206.000000
740.620789	206.000000
740.658569	193.000000
740.696228	203.000000
740.734009	207.000000
740.771790	194.000000
740.809509	211.000000
740.847229	199.000000
740.884949	201.000000
740.922729	199.000000
740.960449	201.000000
740.998169	197.000000
741.035950	200.000000
741.073669	205.000000
741.111389	203.000000
741.149170	213.000000
741.186890	211.000000
741.224609	212.000000
741.262329	205.000000
741.300110	213.000000
741.337769	201.000000
741.375549	204.000000
741.413208	203.000000
741.450989	201.000000
741.488708	201.000000
741.526367	200.000000
741.564148	212.000000
741.601868	211.000000
741.639526	202.000000
741.677307	206.000000
741.715027	212.000000
741.752686	195.000000
741.790466	215.000000
741.828186	211.000000
741.865845	201.000000
741.903564	194.000000
741.941345	209.000000
741.979004	201.000000
742.016724	207.000000
742.054382	202.000000
742.092102	209.000000
742.129822	195.000000
742.167480	201.000000
742.205200	197.000000
742.242920	207.000000
742.280640	209.000000
742.318359	199.000000
742.356079	200.000000
742.393738	206.000000
742.431396	202.000000
742.469116	208.000000
742.506775	192.000000
742.544495	209.000000
742.582214	209.000000
742.619873	202.000000
742.657593	210.000000
742.695251	206.000000
742.732971	206.000000
742.770630	207.000000
742.808289	202.000000
742.846008	206.000000
742.883728	205.000000
742.921326	204.000000
742.959045	203.000000
742.996765	202.000000
743.034424	201.000000
743.072083	203.000000
743.109802	204.000000
743.147400	200.000000
743.185120	207.000000
743.222839	206.000000
743.260437	210.000000
743.298157	208.000000
743.335754	195.000000
743.373474	203.000000
743.411133	198.000000
743.448792	207.000000
743.486450	209.000000
743.524170	193.000000
743.561768	208.000000
743.599487	210.000000
743.637146	219.000000
743.674744	199.000000
743.712463	204.000000
743.750122	207.000000
743.787720	207.000000
743.825439	198.000000
743.863037	200.000000
743.900696	202.000000
743.938416	228.000000
743.976013	203.000000
744.013672	211.000000
744.051331	209.000000
744.088928	213.000000
744.126587	209.000000
744.164307	206.000000
744.201904	200.000000
744.239563	207.000000
744.277222	203.000000
744.314819	205.000000
744.352478	207.000000
744.390137	206.000000
744.427734	206.000000
744.465393	198.000000
744.502991	198.000000
744.540649	210.000000
744.578308	203.000000
744.615906	198.000000
744.653564	195.000000
744.691223	212.000000
744.728821	199.000000
744.766418	205.000000
744.804077	206.000000
744.841675	205.000000
744.879333	200.000000
744.916992	202.000000
744.954529	207.000000
744.992187	213.000000
745.029785	199.000000
745.067444	199.000000
745.105042	209.000000
745.142639	209.000000
745.180298	215.000000
745.217896	198.000000
745.255493	204.000000
745.293152	205.000000
745.330750	209.000000
745.368347	211.000000
745.405945	208.000000
745.443604	204.000000
745.481140	209.000000
745.518799	201.000000
745.556396	209.000000
745.593994	209.000000
745.631592	204.000000
745.669189	195.000000
745.706787	206.000000
745.744385	201.000000
745.781982	209.000000
745.819580	200.000000
745.857178	208.000000
745.894775	206.000000
745.932373	201.000000
745.969971	203.000000
746.007568	196.000000
746.045166	209.000000
746.082764	211.000000
746.120300	210.000000
746.157898	209.000000
746.195557	207.000000
746.233093	198.000000
746.270691	208.000000
746.308228	204.000000
746.345825	213.000000
746.383423	208.000000
746.420959	203.000000
746.458557	203.000000
746.496155	200.000000
746.533691	205.000000
746.571289	199.000000
746.608887	206.000000
746.646423	211.000000
746.684021	204.000000
746.721619	202.000000
746.759155	205.000000
746.796753	196.000000
746.834351	191.000000
746.871826	202.000000
746.909424	214.000000
746.946960	204.000000
746.984558	204.000000
747.022156	201.000000
747.059631	206.000000
747.097229	208.000000
747.134827	201.000000
747.172363	209.000000
747.209900	203.000000
747.247498	198.000000
747.285034	209.000000
747.322571	213.000000
747.360168	203.000000
747.397644	196.000000
747.435242	210.000000
747.472778	214.000000
747.510315	201.000000
747.547913	201.000000
747.585388	213.000000
747.622925	201.000000
747.660522	195.000000
747.697998	201.000000
747.735596	203.000000
747.773132	205.000000
747.810669	205.000000
747.848206	207.000000
747.885742	204.000000
747.923279	196.000000
747.960815	203.000000
747.998352	204.000000
748.035889	213.000000
748.073425	204.000000
748.110901	198.000000
748.148437	199.000000
748.185974	203.000000
748.223511	217.000000
748.261047	209.000000
748.298584	204.000000
748.336060	203.000000
748.373596	205.000000
748.411133	222.000000
748.448608	199.000000
748.486145	208.000000
748.523682	210.000000
748.561218	210.000000
748.598755	205.000000
748.636292	207.000000
748.673706	201.000000
748.711243	211.000000
748.748718	203.000000
748.786255	203.000000
748.823792	201.000000
748.861267	202.000000
748.898804	205.000000
748.936340	213.000000
748.973816	196.000000
749.011292	211.000000
749.048828	207.000000
749.086304	205.000000
749.123840	220.000000
749.161316	198.000000
749.198792	211.000000
749.236328	215.000000
749.273743	205.000000
749.311279	198.000000
749.348816	208.000000
749.386230	206.000000
749.423767	190.000000
749.461304	210.000000
749.498718	208.000000
749.536255	214.000000
749.573730	219.000000
749.611206	203.000000
749.648682	205.000000
749.686218	203.000000
749.723633	211.000000
749.761169	200.000000
749.798645	202.000000
749.836060	201.000000
749.873596	200.000000
749.911011	201.000000
749.948547	212.000000
749.986023	202.000000
750.023437	202.000000
750.060913	196.000000
750.098450	193.000000
750.135864	200.000000
750.173340	205.000000
750.210815	208.000000
750.248291	201.000000
750.285767	207.000000
750.323242	211.000000
750.360657	212.000000
750.398132	199.000000
750.435608	207.000000
750.473022	205.000000
750.510498	202.000000
750.547974	196.000000
750.585449	201.000000
750.622925	194.000000
750.660339	210.000000
750.697815	207.000000
750.735291	206.000000
750.772644	214.000000
750.810120	205.000000
750.847595	202.000000
750.885010	201.000000
750.922485	214.000000
750.959961	205.000000
750.997375	209.000000
751.034851	213.000000
751.072266	209.000000
751.109680	195.000000
751.147156	211.000000
751.184570	203.000000
751.221985	205.000000
751.259460	196.000000
751.296875	201.000000
751.334290	204.000000
751.371765	206.000000
751.409180	206.000000
751.446594	206.000000
751.484070	208.000000
751.521423	212.000000
751.558899	205.000000
751.596375	209.000000
751.633728	210.000000
751.671204	214.000000
751.708618	201.000000
751.746033	208.000000
751.783447	197.000000
751.820801	198.000000
751.858276	209.000000
751.895691	202.000000
751.933105	205.000000
751.970520	201.000000
752.007935	200.000000
752.045349	206.000000
752.082764	206.000000
752.120178	202.000000
752.157532	201.000000
752.195007	201.000000
752.232422	208.000000
752.269775	209.000000
752.307190	209.000000
752.344543	197.000000
752.382019	205.000000
752.419434	207.000000
752.456787	208.000000
752.494202	210.000000
752.531616	206.000000
752.568970	212.000000
752.606384	205.000000
752.643799	208.000000
752.681152	209.000000
752.718567	210.000000
752.755981	191.000000
752.793335	206.000000
752.830750	195.000000
752.868164	209.000000
752.905518	196.000000
752.942932	210.000000
752.980225	198.000000
753.017639	211.000000
753.055054	209.000000
753.092407	206.000000
753.129822	208.000000
753.167175	215.000000
753.204529	199.000000
753.241943	202.000000
753.279358	195.000000
753.316650	209.000000
753.354065	199.000000
753.391479	211.000000
753.428772	215.000000
753.466187	209.000000
753.503479	200.000000
753.540894	202.000000
753.578308	198.000000
753.615601	202.000000
753.653015	205.000000
753.690369	198.000000
753.727722	202.000000
753.765076	200.000000
753.802490	196.000000
753.839783	197.000000
753.877136	204.000000
753.914551	218.000000
753.951843	201.000000
753.989258	213.000000
754.026611	205.000000
754.063904	209.000000
754.101257	201.000000
754.138611	193.000000
754.175964	206.000000
754.213318	220.000000
754.250610	195.000000
754.288025	201.000000
754.325378	201.000000
754.362671	205.000000
754.400024	205.000000
754.437378	215.000000
754.474670	214.000000
754.512085	197.000000
754.549438	206.000000
754.586731	202.000000
754.624084	205.000000
754.661438	201.000000
754.698730	211.000000
754.736084	207.000000
754.773376	206.000000
754.810730	203.000000
754.848083	203.000000
754.885315	207.000000
754.922668	198.000000
754.960022	201.000000
754.997314	210.000000
755.034668	204.000000
755.072021	209.000000
755.109253	205.000000
755.146606	212.000000
755.183960	203.000000
755.221252	218.000000
755.258545	209.000000
755.295898	213.000000
755.333191	217.000000
755.370544	206.000000
755.407776	209.000000
755.445129	209.000000
755.482422	211.000000
755.519714	204.000000
755.557068	201.000000
755.594360	196.000000
755.631653	213.000000
755.668945	216.000000
755.706299	211.000000
755.743530	216.000000
755.780884	219.000000
755.818176	213.000000
755.855408	217.000000
755.892761	211.000000
755.930054	207.000000
755.967346	213.000000
756.004639	216.000000
756.041870	200.000000
756.079224	215.000000
756.116516	204.000000
756.153748	209.000000
756.191040	216.000000
756.228394	215.000000
756.265625	201.000000
756.302917	209.000000
756.340210	203.000000
756.377441	215.000000
756.414795	219.000000
756.452087	212.000000
756.489319	199.000000
756.526611	213.000000
756.563843	213.000000
756.601135	221.000000
756.638428	220.000000
756.675659	210.000000
756.712952	210.000000
756.750244	218.000000
756.787476	214.000000
756.824768	216.000000
756.862061	209.000000
756.899292	256.000000
756.936584	214.000000
756.973816	226.000000
757.011047	226.000000
757.048340	213.000000
757.085632	216.000000
757.122864	225.000000
757.160156	208.000000
757.197327	220.000000
757.234619	220.000000
757.271912	209.000000
757.309082	220.000000
757.346375	211.000000
757.383667	222.000000
757.420837	213.000000
757.458130	219.000000
757.495422	213.000000
757.532593	219.000000
757.569885	210.000000
757.607117	211.000000
757.644348	216.000000
757.681580	231.000000
757.718811	201.000000
757.756042	222.000000
757.793335	214.000000
757.830505	220.000000
757.867798	216.000000
757.905029	213.000000
757.942200	216.000000
757.979492	215.000000
758.016724	222.000000
758.053894	221.000000
758.091187	238.000000
758.128418	216.000000
758.165588	215.000000
758.202820	233.000000
758.240112	217.000000
758.277283	229.000000
758.314514	224.000000
758.351685	221.000000
758.388916	227.000000
758.426147	233.000000
758.463379	231.000000
758.500610	222.000000
758.537842	223.000000
758.575012	231.000000
758.612244	219.000000
758.649475	234.000000
758.686646	217.000000
758.723877	223.000000
758.761108	231.000000
758.798279	221.000000
758.835510	224.000000
758.872742	227.000000
758.909851	226.000000
758.947083	229.000000
758.984253	227.000000
759.021484	228.000000
759.058716	230.000000
759.095886	224.000000
759.133057	227.000000
759.170288	228.000000
759.207458	223.000000
759.244690	238.000000
759.281860	234.000000
759.319031	223.000000
759.356262	223.000000
759.393433	223.000000
759.430603	224.000000
759.467773	225.000000
759.505005	233.000000
759.542175	229.000000
759.579346	228.000000
759.616516	229.000000
759.653687	234.000000
759.690918	227.000000
759.728027	227.000000
759.765259	233.000000
759.802429	234.000000
759.839539	234.000000
759.876770	240.000000
759.913940	239.000000
759.951111	229.000000
759.988281	235.000000
760.025452	226.000000
760.062561	226.000000
760.099792	241.000000
760.136963	238.000000
760.174072	227.000000
760.211243	223.000000
760.248413	229.000000
760.285583	230.000000
760.322754	244.000000
760.359863	239.000000
760.397034	235.000000
760.434204	235.000000
760.471375	229.000000
760.508545	234.000000
760.545715	225.000000
760.582825	223.000000
760.619995	232.000000
760.657166	231.000000
760.694275	231.000000
760.731445	234.000000
760.768555	233.000000
760.805664	238.000000
760.842834	231.000000
760.879944	240.000000
760.917114	236.000000
760.954285	235.000000
760.991394	227.000000
761.028564	246.000000
761.065674	242.000000
761.102783	233.000000
761.139954	245.000000
761.177124	251.000000
761.214172	245.000000
761.251343	239.000000
761.288452	240.000000
761.325562	245.000000
761.362732	239.000000
761.399841	245.000000
761.436951	247.000000
761.474121	240.000000
761.511169	243.000000
761.548340	251.000000
761.585449	252.000000
761.622559	248.000000
761.659668	246.000000
761.696838	249.000000
761.733887	250.000000
761.771057	246.000000
761.808167	245.000000
761.845276	250.000000
761.882385	269.000000
761.919434	251.000000
761.956604	271.000000
761.993713	248.000000
762.030762	261.000000
762.067871	249.000000
762.105042	253.000000
762.142090	261.000000
762.179199	251.000000
762.216309	256.000000
762.253418	273.000000
762.290527	262.000000
762.327637	268.000000
762.364685	253.000000
762.401794	261.000000
762.438904	260.000000
762.475952	253.000000
762.513062	250.000000
762.550110	253.000000
762.587219	271.000000
762.624329	269.000000
762.661377	267.000000
762.698486	267.000000
762.735596	264.000000
762.772644	262.000000
762.809753	258.000000
762.846863	263.000000
762.883911	270.000000
762.921021	267.000000
762.958069	265.000000
762.995117	269.000000
763.032227	273.000000
763.069336	265.000000
763.106323	266.000000
763.143433	263.000000
763.180481	270.000000
763.217590	274.000000
763.254639	266.000000
763.291687	260.000000
763.328735	281.000000
763.365845	269.000000
763.402893	268.000000
763.439941	264.000000
763.477051	274.000000
763.514038	274.000000
763.551147	271.000000
763.588196	272.000000
763.625244	273.000000
763.662292	279.000000
763.699402	279.000000
763.736389	274.000000
763.773499	294.000000
763.810486	278.000000
763.847534	282.000000
763.884644	282.000000
763.921631	277.000000
763.958679	289.000000
763.995728	283.000000
764.032776	290.000000
764.069824	270.000000
764.106873	287.000000
764.143860	295.000000
764.180969	277.000000
764.218018	292.000000
764.255005	282.000000
764.292053	285.000000
764.329102	301.000000
764.366089	303.000000
764.403137	293.000000
764.440125	292.000000
764.477173	299.000000
764.514221	303.000000
764.551208	303.000000
764.588257	290.000000
764.625305	294.000000
764.662292	300.000000
764.699341	310.000000
764.736389	293.000000
764.773376	317.000000
764.810425	297.000000
764.847473	313.000000
764.884399	308.000000
764.921448	326.000000
764.958435	314.000000
764.995483	306.000000
765.032532	317.000000
765.069458	302.000000
765.106506	303.000000
765.143555	300.000000
765.180481	302.000000
765.217529	318.000000
765.254578	297.000000
765.291504	309.000000
765.328552	305.000000
765.365540	308.000000
765.402527	321.000000
765.439575	312.000000
765.476501	308.000000
765.513550	301.000000
765.550537	314.000000
765.587463	324.000000
765.624512	307.000000
765.661499	301.000000
765.698486	317.000000
765.735474	307.000000
765.772461	309.000000
765.809448	321.000000
765.846436	315.000000
765.883423	326.000000
765.920410	317.000000
765.957397	315.000000
765.994385	322.000000
766.031311	333.000000
766.068359	321.000000
766.105286	317.000000
766.142273	331.000000
766.179260	320.000000
766.216187	319.000000
766.253174	318.000000
766.290161	320.000000
766.327148	328.000000
766.364136	327.000000
766.401123	351.000000
766.438049	324.000000
766.475037	342.000000
766.512024	336.000000
766.548950	349.000000
766.585937	350.000000
766.622864	339.000000
766.659790	342.000000
766.696777	329.000000
766.733704	351.000000
766.770691	343.000000
766.807678	358.000000
766.844604	349.000000
766.881531	345.000000
766.918518	358.000000
766.955444	364.000000
766.992432	350.000000
767.029358	354.000000
767.066284	356.000000
767.103271	360.000000
767.140198	390.000000
767.177124	381.000000
767.214050	371.000000
767.251038	366.000000
767.287964	363.000000
767.324890	356.000000
767.361816	374.000000
767.398743	379.000000
767.435730	369.000000
767.472595	379.000000
767.509583	383.000000
767.546509	370.000000
767.583374	377.000000
767.620361	368.000000
767.657288	373.000000
767.694214	374.000000
767.731140	375.000000
767.768066	376.000000
767.804993	387.000000
767.841919	378.000000
767.878845	380.000000
767.915710	388.000000
767.952698	387.000000
767.989563	387.000000
768.026489	394.000000
768.063416	380.000000
768.100281	384.000000
768.137207	397.000000
768.174133	397.000000
768.211060	402.000000
768.247986	401.000000
768.284912	392.000000
768.321777	398.000000
768.358704	394.000000
768.395630	401.000000
768.432495	399.000000
768.469421	409.000000
768.506348	403.000000
768.543152	408.000000
768.580078	410.000000
768.616943	405.000000
768.653870	414.000000
768.690796	425.000000
768.727661	410.000000
768.764587	413.000000
768.801453	405.000000
768.838318	424.000000
768.875244	429.000000
768.912109	424.000000
768.948975	419.000000
768.985901	423.000000
769.022766	410.000000
769.059631	422.000000
769.096558	424.000000
769.133362	419.000000
769.170288	417.000000
769.207214	422.000000
769.244019	431.000000
769.280945	424.000000
769.317810	440.000000
769.354675	433.000000
769.391541	443.000000
769.428406	435.000000
769.465271	449.000000
769.502136	437.000000
769.539062	450.000000
769.575867	433.000000
769.612732	446.000000
769.649597	452.000000
769.686462	460.000000
769.723328	449.000000
769.760193	440.000000
769.797058	444.000000
769.833923	457.000000
769.870728	459.000000
769.907593	458.000000
769.944519	454.000000
769.981323	466.000000
770.018188	466.000000
770.055054	458.000000
770.091858	456.000000
770.128723	473.000000
770.165588	478.000000
770.202393	469.000000
770.239258	479.000000
770.276062	472.000000
770.312927	479.000000
770.349792	478.000000
770.386597	478.000000
770.423462	492.000000
770.460327	503.000000
770.497131	482.000000
770.533997	473.000000
770.570862	495.000000
770.607605	490.000000
770.644470	486.000000
770.681335	497.000000
770.718140	492.000000
770.754944	493.000000
770.791809	482.000000
770.828613	489.000000
770.865479	490.000000
770.902222	515.000000
770.939087	495.000000
770.975952	488.000000
771.012695	490.000000
771.049561	503.000000
771.086365	493.000000
771.123169	494.000000
771.159973	495.000000
771.196838	503.000000
771.233582	503.000000
771.270447	502.000000
771.307251	503.000000
771.344055	507.000000
771.380859	508.000000
771.417664	502.000000
771.454468	520.000000
771.491272	519.000000
771.528076	521.000000
771.564880	514.000000
771.601685	514.000000
771.638428	519.000000
771.675293	525.000000
771.712097	513.000000
771.748840	534.000000
771.785645	521.000000
771.822449	522.000000
771.859253	538.000000
771.896057	533.000000
771.932861	553.000000
771.969604	545.000000
772.006409	524.000000
772.043213	550.000000
772.079956	549.000000
772.116760	543.000000
772.153503	551.000000
772.190308	566.000000
772.227112	548.000000
772.263855	547.000000
772.300659	553.000000
772.337463	577.000000
772.374207	558.000000
772.411011	552.000000
772.447754	541.000000
772.484497	562.000000
772.521301	551.000000
772.558105	551.000000
772.594849	566.000000
772.631592	577.000000
772.668396	566.000000
772.705139	572.000000
772.741882	566.000000
772.778625	594.000000
772.815430	596.000000
772.852173	600.000000
772.888916	605.000000
772.925720	601.000000
772.962463	610.000000
772.999207	607.000000
773.035950	614.000000
773.072754	623.000000
773.109436	608.000000
773.146240	602.000000
773.182922	609.000000
773.219727	615.000000
773.256470	615.000000
773.293152	620.000000
773.329956	632.000000
773.366699	624.000000
773.403381	618.000000
773.440186	621.000000
773.476929	627.000000
773.513611	627.000000
773.550354	640.000000
773.587158	634.000000
773.623840	627.000000
773.660583	626.000000
773.697327	641.000000
773.734009	640.000000
773.770813	656.000000
773.807495	635.000000
773.844238	644.000000
773.880981	648.000000
773.917664	647.000000
773.954407	661.000000
773.991150	671.000000
774.027832	669.000000
774.064575	651.000000
774.101318	664.000000
774.138000	665.000000
774.174744	669.000000
774.211487	693.000000
774.248108	678.000000
774.284851	675.000000
774.321594	675.000000
774.358276	675.000000
774.395020	694.000000
774.431702	703.000000
774.468384	691.000000
774.505127	693.000000
774.541809	693.000000
774.578491	709.000000
774.615234	701.000000
774.651917	702.000000
774.688599	711.000000
774.725342	723.000000
774.762024	709.000000
774.798706	706.000000
774.835449	709.000000
774.872070	718.000000
774.908813	731.000000
774.945496	724.000000
774.982178	721.000000
775.018860	712.000000
775.055542	720.000000
775.092224	734.000000
775.128967	745.000000
775.165588	747.000000
775.202271	736.000000
775.239014	743.000000
775.275635	734.000000
775.312317	734.000000
775.349060	756.000000
775.385681	764.000000
775.422363	752.000000
775.459045	749.000000
775.495667	751.000000
775.532410	741.000000
775.569092	753.000000
775.605713	775.000000
775.642395	767.000000
775.679016	767.000000
775.715698	745.000000
775.752380	753.000000
775.789001	753.000000
775.825684	764.000000
775.862366	786.000000
775.898987	781.000000
775.935669	755.000000
775.972351	783.000000
776.008972	779.000000
776.045654	798.000000
776.082336	780.000000
776.118958	785.000000
776.155640	786.000000
776.192322	778.000000
776.228882	784.000000
776.265564	797.000000
776.302185	795.000000
776.338867	807.000000
776.375488	797.000000
776.412109	798.000000
776.448792	783.000000
776.485413	809.000000
776.522034	803.000000
776.558716	804.000000
776.595337	798.000000
776.631958	797.000000
776.668579	791.000000
776.705261	802.000000
776.741882	801.000000
776.778503	805.000000
776.815186	784.000000
776.851746	801.000000
776.888367	787.000000
776.924988	795.000000
776.961609	789.000000
776.998291	790.000000
777.034851	790.000000
777.071472	820.000000
777.108154	783.000000
777.144714	801.000000
777.181335	813.000000
777.218018	797.000000
777.254578	814.000000
777.291199	814.000000
777.327759	816.000000
777.364380	825.000000
777.401062	824.000000
777.437622	837.000000
777.474243	801.000000
777.510864	777.000000
777.547424	696.000000
777.584045	645.000000
777.620667	608.000000
777.657227	557.000000
777.693848	516.000000
777.730469	497.000000
777.767029	457.000000
777.803650	432.000000
777.840271	409.000000
777.876831	424.000000
777.913452	460.000000
777.950012	483.000000
777.986633	533.000000
778.023193	578.000000
778.059753	613.000000
778.096375	664.000000
778.132996	730.000000
778.169556	751.000000
778.206116	785.000000
778.242737	794.000000
778.279297	821.000000
778.315857	788.000000
778.352478	766.000000
778.389038	729.000000
778.425598	693.000000
778.462219	649.000000
778.498718	581.000000
778.535339	558.000000
778.571838	521.000000
778.608459	487.000000
778.645020	440.000000
778.681580	433.000000
778.718140	440.000000
778.754761	441.000000
778.791260	488.000000
778.827881	546.000000
778.864441	598.000000
778.900940	653.000000
778.937561	701.000000
778.974121	725.000000
779.010620	759.000000
779.047241	787.000000
779.083801	804.000000
779.120300	812.000000
779.156860	774.000000
779.193359	735.000000
779.229980	689.000000
779.266541	650.000000
779.303040	590.000000
779.339600	549.000000
779.376160	503.000000
779.412659	474.000000
779.449219	460.000000
779.485779	454.000000
779.522278	481.000000
779.558838	527.000000
779.595398	589.000000
779.631897	654.000000
779.668457	714.000000
779.705017	766.000000
779.741516	782.000000
779.778076	819.000000
779.814575	875.000000
779.851074	922.000000
779.887634	953.000000
779.924133	971.000000
779.960693	963.000000
779.997253	1002.000000
780.033691	983.000000
780.070251	994.000000
780.106812	1019.000000
780.143250	1039.000000
780.179810	1030.000000
780.216370	1027.000000
780.252808	1043.000000
780.289368	1030.000000
780.325867	1033.000000
780.362366	1053.000000
780.398865	1086.000000
780.435364	1058.000000
780.471863	1077.000000
780.508423	1054.000000
780.544861	1065.000000
780.581421	1081.000000
780.617920	1085.000000
780.654419	1099.000000
780.690918	1092.000000
780.727417	1082.000000
780.763916	1090.000000
780.800415	1097.000000
780.836914	1093.000000
780.873352	1130.000000
780.909912	1113.000000
780.946411	1092.000000
780.982849	1090.000000
781.019348	1124.000000
781.055786	1122.000000
781.092346	1099.000000
781.128845	1126.000000
781.165283	1115.000000
781.201782	1126.000000
781.238281	1122.000000
781.274719	1119.000000
781.311218	1135.000000
781.347717	1149.000000
781.384155	1123.000000
781.420654	1136.000000
781.457092	1164.000000
781.493591	1155.000000
781.530090	1139.000000
781.566528	1157.000000
781.602966	1158.000000
781.639465	1151.000000
781.675903	1126.000000
781.712402	1114.000000
781.748901	1131.000000
781.785278	1121.000000
781.821777	1123.000000
781.858276	1115.000000
781.894714	1131.000000
781.931152	1114.000000
781.967651	1128.000000
782.004089	1133.000000
782.040527	1127.000000
782.076965	1111.000000
782.113403	1118.000000
782.149902	1112.000000
782.186340	1120.000000
782.222778	1139.000000
782.259277	1123.000000
782.295654	1135.000000
782.332092	1120.000000
782.368591	1139.000000
782.404968	1148.000000
782.441467	1161.000000
782.477905	1175.000000
782.514282	1158.000000
782.550781	1174.000000
782.587219	1189.000000
782.623596	1201.000000
782.660095	1198.000000
782.696472	1197.000000
782.732910	1204.000000
782.769348	1194.000000
782.805786	1216.000000
782.842224	1215.000000
782.878662	1204.000000
782.915039	1215.000000
782.951477	1222.000000
782.987915	1211.000000
783.024292	1218.000000
783.060730	1238.000000
783.097168	1222.000000
783.133545	1213.000000
783.169983	1213.000000
783.206421	1211.000000
783.242798	1203.000000
783.279236	1169.000000
783.315613	1182.000000
783.352051	1170.000000
783.388489	1185.000000
783.424866	1175.000000
783.461304	1188.000000
783.497681	1202.000000
783.534058	1187.000000
783.570496	1177.000000
783.606934	1190.000000
783.643250	1197.000000
783.679687	1197.000000
783.716125	1180.000000
783.752441	1203.000000
783.788879	1225.000000
783.825317	1244.000000
783.861633	1237.000000
783.898071	1237.000000
783.934448	1276.000000
783.970825	1283.000000
784.007263	1285.000000
784.043579	1303.000000
784.080017	1306.000000
784.116394	1290.000000
784.152710	1290.000000
784.189148	1276.000000
784.225525	1282.000000
784.261902	1281.000000
784.298279	1265.000000
784.334656	1243.000000
784.371033	1233.000000
784.407410	1223.000000
784.443787	1211.000000
784.480164	1212.000000
784.516541	1204.000000
784.552856	1219.000000
784.589233	1204.000000
784.625610	1197.000000
784.661987	1216.000000
784.698364	1226.000000
784.734741	1242.000000
784.771057	1250.000000
784.807434	1243.000000
784.843811	1243.000000
784.880127	1241.000000
784.916504	1282.000000
784.952881	1314.000000
784.989197	1325.000000
785.025574	1340.000000
785.061951	1334.000000
785.098267	1355.000000
785.134644	1381.000000
785.170959	1396.000000
785.207275	1419.000000
785.243652	1427.000000
785.279968	1398.000000
785.316345	1385.000000
785.352722	1366.000000
785.388977	1354.000000
785.425354	1337.000000
785.461731	1343.000000
785.498047	1321.000000
785.534363	1273.000000
785.570679	1257.000000
785.606995	1246.000000
785.643372	1236.000000
785.679687	1249.000000
785.716003	1241.000000
785.752380	1213.000000
785.788635	1207.000000
785.825012	1221.000000
785.861328	1217.000000
785.897644	1230.000000
785.933960	1287.000000
785.970337	1315.000000
786.006592	1331.000000
786.042908	1347.000000
786.079285	1369.000000
786.115540	1428.000000
786.151855	1450.000000
786.188171	1472.000000
786.224487	1501.000000
786.260803	1493.000000
786.297119	1511.000000
786.333435	1495.000000
786.369751	1477.000000
786.406006	1510.000000
786.442322	1491.000000
786.478638	1438.000000
786.514954	1426.000000
786.551270	1384.000000
786.587585	1400.000000
786.623840	1363.000000
786.660156	1357.000000
786.696472	1319.000000
786.732727	1286.000000
786.769043	1263.000000
786.805298	1257.000000
786.841614	1267.000000
786.877930	1291.000000
786.914124	1287.000000
786.950439	1295.000000
786.986755	1295.000000
787.023010	1332.000000
787.059326	1348.000000
787.095642	1373.000000
787.131836	1406.000000
787.168152	1412.000000
787.204468	1422.000000
787.240723	1442.000000
787.276978	1447.000000
787.313293	1483.000000
787.349548	1521.000000
787.385803	1526.000000
787.422058	1524.000000
787.458313	1499.000000
787.494629	1475.000000
787.530823	1460.000000
787.567139	1451.000000
787.603455	1436.000000
787.639648	1422.000000
787.675903	1407.000000
787.712219	1378.000000
787.748413	1367.000000
787.784729	1363.000000
787.820984	1365.000000
787.857178	1367.000000
787.893494	1356.000000
787.929749	1322.000000
787.965942	1337.000000
788.002258	1339.000000
788.038452	1379.000000
788.074707	1360.000000
788.110962	1363.000000
788.147217	1368.000000
788.183472	1369.000000
788.219727	1344.000000
788.255920	1368.000000
788.292175	1418.000000
788.328430	1439.000000
788.364624	1401.000000
788.400879	1422.000000
788.437134	1427.000000
788.473328	1403.000000
788.509583	1413.000000
788.545837	1430.000000
788.582031	1438.000000
788.618286	1432.000000
788.654480	1417.000000
788.690735	1431.000000
788.726990	1441.000000
788.763184	1425.000000
788.799377	1455.000000
788.835632	1436.000000
788.871826	1472.000000
788.908081	1461.000000
788.944336	1445.000000
788.980469	1466.000000
789.016724	1443.000000
789.052979	1464.000000
789.089111	1450.000000
789.125366	1447.000000
789.161621	1437.000000
789.197754	1440.000000
789.234009	1431.000000
789.270142	1425.000000
789.306396	1414.000000
789.342590	1437.000000
789.378784	1407.000000
789.414978	1404.000000
789.451233	1388.000000
789.487366	1375.000000
789.523621	1392.000000
789.559814	1405.000000
789.595947	1437.000000
789.632202	1430.000000
789.668335	1406.000000
789.704529	1396.000000
789.740784	1433.000000
789.776917	1426.000000
789.813110	1445.000000
789.849304	1480.000000
789.885498	1450.000000
789.921692	1439.000000
789.957886	1444.000000
789.994019	1458.000000
790.030212	1490.000000
790.066406	1503.000000
790.102539	1479.000000
790.138733	1489.000000
790.174927	1455.000000
790.211060	1438.000000
790.247253	1451.000000
790.283386	1466.000000
790.319580	1461.000000
790.355774	1416.000000
790.391907	1301.000000
790.428101	1124.000000
790.464294	925.000000
790.500427	806.000000
790.536621	752.000000
790.572754	823.000000
790.608887	924.000000
790.645081	997.000000
790.681274	1057.000000
790.717346	1091.000000
790.753540	1102.000000
790.789734	1158.000000
790.825867	1165.000000
790.862000	1159.000000
790.898132	1191.000000
790.934265	1208.000000
790.970459	1230.000000
791.006592	1261.000000
791.042725	1295.000000
791.078918	1287.000000
791.114990	1309.000000
791.151184	1292.000000
791.187317	1317.000000
791.223389	1352.000000
791.259583	1366.000000
791.295715	1390.000000
791.331848	1376.000000
791.367981	1376.000000
791.404114	1369.000000
791.440247	1381.000000
791.476379	1410.000000
791.512451	1406.000000
791.548584	1423.000000
791.584778	1384.000000
791.620850	1387.000000
791.656982	1386.000000
791.693115	1408.000000
791.729187	1422.000000
791.765381	1441.000000
791.801514	1438.000000
791.837585	1424.000000
791.873718	1421.000000
791.909851	1432.000000
791.945923	1460.000000
791.982056	1459.000000
792.018188	1458.000000
792.054260	1453.000000
792.090393	1448.000000
792.126465	1417.000000
792.162598	1426.000000
792.198669	1446.000000
792.234741	1439.000000
792.270874	1438.000000
792.307007	1422.000000
792.343079	1405.000000
792.379150	1403.000000
792.415283	1391.000000
792.451355	1416.000000
792.487488	1408.000000
792.523560	1420.000000
792.559631	1387.000000
792.595764	1376.000000
792.631836	1353.000000
792.667908	1379.000000
792.703979	1379.000000
792.740051	1408.000000
792.776184	1410.000000
792.812256	1384.000000
792.848328	1366.000000
792.884399	1377.000000
792.920471	1376.000000
792.956543	1418.000000
792.992615	1437.000000
793.028748	1407.000000
793.064758	1388.000000
793.100830	1410.000000
793.136963	1399.000000
793.172974	1417.000000
793.209045	1418.000000
793.245178	1427.000000
793.281189	1416.000000
793.317261	1392.000000
793.353271	1353.000000
793.389404	1369.000000
793.425476	1411.000000
793.461487	1399.000000
793.497559	1391.000000
793.533630	1383.000000
793.569641	1344.000000
793.605713	1323.000000
793.641785	1342.000000
793.677795	1349.000000
793.713867	1353.000000
793.749878	1392.000000
793.785950	1382.000000
793.822021	1385.000000
793.858032	1366.000000
793.894104	1384.000000
793.930176	1378.000000
793.966187	1392.000000
794.002258	1396.000000
794.038269	1403.000000
794.074280	1376.000000
794.110352	1425.000000
794.146423	1391.000000
794.182373	1409.000000
794.218445	1415.000000
794.254517	1402.000000
794.290466	1369.000000
794.326538	1341.000000
794.362549	1347.000000
794.398560	1347.000000
794.434631	1372.000000
794.470581	1332.000000
794.506653	1335.000000
794.542664	1313.000000
794.578674	1289.000000
794.614685	1287.000000
794.650757	1294.000000
794.686707	1317.000000
794.722778	1311.000000
794.758789	1317.000000
794.794739	1327.000000
794.830811	1331.000000
794.866821	1326.000000
794.902771	1346.000000
794.938843	1349.000000
794.974792	1360.000000
795.010803	1360.000000
795.046814	1348.000000
795.082825	1333.000000
795.118835	1350.000000
795.154846	1345.000000
795.190796	1357.000000
795.226807	1332.000000
795.262817	1346.000000
795.298767	1310.000000
795.334778	1316.000000
795.370850	1296.000000
795.406799	1323.000000
795.442810	1287.000000
795.478821	1298.000000
795.514709	1274.000000
795.550720	1273.000000
795.586670	1269.000000
795.622681	1272.000000
795.658691	1303.000000
795.694641	1306.000000
795.730652	1299.000000
795.766663	1310.000000
795.802551	1304.000000
795.838562	1320.000000
795.874573	1333.000000
795.910522	1350.000000
795.946472	1325.000000
795.982483	1333.000000
796.018433	1308.000000
796.054382	1303.000000
796.090393	1284.000000
796.126282	1297.000000
796.162292	1279.000000
796.198242	1292.000000
796.234192	1273.000000
796.270203	1264.000000
796.306091	1260.000000
796.342041	1278.000000
796.378052	1267.000000
796.413940	1278.000000
796.449951	1284.000000
796.485901	1279.000000
796.521790	1265.000000
796.557800	1288.000000
796.593689	1254.000000
796.629639	1273.000000
796.665649	1287.000000
796.701599	1297.000000
796.737488	1297.000000
796.773437	1283.000000
796.809387	1282.000000
796.845337	1313.000000
796.881287	1332.000000
796.917175	1340.000000
796.953125	1330.000000
796.989075	1303.000000
797.024963	1266.000000
797.060913	1266.000000
797.096863	1269.000000
797.132751	1286.000000
797.168701	1292.000000
797.204590	1272.000000
797.240540	1238.000000
797.276489	1233.000000
797.312439	1237.000000
797.348328	1237.000000
797.384277	1260.000000
797.420166	1269.000000
797.456055	1243.000000
797.492004	1222.000000
797.527893	1225.000000
797.563843	1225.000000
797.599731	1260.000000
797.635620	1238.000000
797.671570	1250.000000
797.707520	1245.000000
797.743347	1241.000000
797.779297	1238.000000
797.815125	1242.000000
797.851074	1258.000000
797.887024	1257.000000
797.922913	1249.000000
797.958801	1243.000000
797.994690	1196.000000
798.030579	1206.000000
798.066467	1225.000000
798.102356	1228.000000
798.138245	1225.000000
798.174133	1226.000000
798.210083	1203.000000
798.245911	1198.000000
798.281799	1189.000000
798.317749	1203.000000
798.353577	1220.000000
798.389465	1223.000000
798.425293	1222.000000
798.461243	1209.000000
798.497131	1174.000000
798.532959	1183.000000
798.568848	1203.000000
798.604736	1198.000000
798.640564	1186.000000
798.676453	1185.000000
798.712402	1174.000000
798.748230	1152.000000
798.784119	1162.000000
798.820007	1182.000000
798.855835	1200.000000
798.891724	1186.000000
798.927551	1160.000000
798.963379	1146.000000
798.999268	1157.000000
799.035095	1163.000000
799.070984	1172.000000
799.106873	1168.000000
799.142700	1166.000000
799.178528	1140.000000
799.214417	1145.000000
799.250244	1174.000000
799.286133	1168.000000
799.321960	1192.000000
799.357788	1183.000000
799.393677	1166.000000
799.429504	1160.000000
799.465332	1137.000000
799.501221	1151.000000
799.537048	1163.000000
799.572876	1175.000000
799.608704	1153.000000
799.644531	1150.000000
799.680359	1145.000000
799.716248	1173.000000
799.752014	1178.000000
799.787903	1179.000000
799.823730	1167.000000
799.859558	1179.000000
799.895386	1139.000000
799.931213	1105.000000
799.967041	1115.000000
800.002869	1125.000000
800.038696	1141.000000
800.074463	1122.000000
800.110352	1135.000000
800.146179	1099.000000
800.181946	1101.000000
800.217773	1095.000000
800.253540	1103.000000
800.289429	1114.000000
800.325256	1094.000000
800.361023	1097.000000
800.396851	1105.000000
800.432678	1092.000000
800.468445	1083.000000
800.504272	1101.000000
800.540100	1094.000000
800.575867	1102.000000
800.611694	1099.000000
800.647461	1054.000000
800.683289	1053.000000
800.719116	1066.000000
800.754883	1066.000000
800.790649	1048.000000
800.826477	1047.000000
800.862244	1053.000000
800.898071	1023.000000
800.933838	1025.000000
800.969604	1037.000000
801.005432	1037.000000
801.041199	1041.000000
801.076965	1036.000000
801.112793	1011.000000
801.148560	984.000000
801.184326	999.000000
801.220154	991.000000
801.255859	999.000000
801.291687	1015.000000
801.327454	999.000000
801.363281	995.000000
801.398987	973.000000
801.434814	972.000000
801.470520	978.000000
801.506287	970.000000
801.542114	969.000000
801.577820	984.000000
801.613647	963.000000
801.649414	951.000000
801.685120	947.000000
801.720886	975.000000
801.756714	971.000000
801.792419	959.000000
801.828186	946.000000
801.863892	944.000000
801.899719	946.000000
801.935486	938.000000
801.971252	943.000000
802.006958	960.000000
802.042725	942.000000
802.078430	931.000000
802.114197	945.000000
802.149963	967.000000
802.185669	933.000000
802.221436	917.000000
802.257202	938.000000
802.292908	926.000000
802.328674	938.000000
802.364441	930.000000
802.400146	929.000000
802.435913	927.000000
802.471558	924.000000
802.507324	927.000000
802.543091	917.000000
802.578796	920.000000
802.614502	930.000000
802.650269	945.000000
802.685974	919.000000
802.721741	933.000000
802.757446	948.000000
802.793152	924.000000
802.828918	924.000000
802.864624	938.000000
802.900330	953.000000
802.936035	933.000000
802.971802	920.000000
803.007446	920.000000
803.043213	903.000000
803.078857	901.000000
803.114624	880.000000
803.150330	905.000000
803.185974	892.000000
803.221741	899.000000
803.257446	893.000000
803.293152	899.000000
803.328857	871.000000
803.364563	860.000000
803.400208	863.000000
803.435974	887.000000
803.471680	870.000000
803.507324	855.000000
803.543030	862.000000
803.578735	871.000000
803.614441	849.000000
803.650146	863.000000
803.685791	843.000000
803.721497	849.000000
803.757202	839.000000
803.792847	842.000000
803.828552	823.000000
803.864258	836.000000
803.899902	831.000000
803.935608	815.000000
803.971313	818.000000
804.006958	825.000000
804.042664	830.000000
804.078308	827.000000
804.113953	819.000000
804.149658	827.000000
804.185364	825.000000
804.221008	821.000000
804.256714	805.000000
804.292297	802.000000
804.328003	791.000000
804.363708	782.000000
804.399292	797.000000
804.434998	791.000000
804.470703	785.000000
804.506287	792.000000
804.541992	778.000000
804.577637	795.000000
804.613281	777.000000
804.648926	778.000000
804.684570	784.000000
804.720215	784.000000
804.755920	767.000000
804.791565	766.000000
804.827209	781.000000
804.862854	779.000000
804.898437	770.000000
804.934143	768.000000
804.969788	763.000000
805.005371	772.000000
805.041077	763.000000
805.076721	768.000000
805.112305	773.000000
805.147949	779.000000
805.183655	755.000000
805.219238	754.000000
805.254883	753.000000
805.290466	763.000000
805.326111	775.000000
805.361755	756.000000
805.397400	765.000000
805.432983	760.000000
805.468628	758.000000
805.504211	763.000000
805.539856	762.000000
805.575500	762.000000
805.611084	751.000000
805.646729	745.000000
805.682373	744.000000
805.717957	751.000000
805.753601	748.000000
805.789246	724.000000
805.824768	746.000000
805.860413	756.000000
805.895996	752.000000
805.931641	739.000000
805.967224	757.000000
806.002869	733.000000
806.038452	733.000000
806.074036	724.000000
806.109619	734.000000
806.145264	720.000000
806.180847	722.000000
806.216431	712.000000
806.252014	716.000000
806.287659	707.000000
806.323181	727.000000
806.358826	721.000000
806.394409	718.000000
806.429993	705.000000
806.465576	717.000000
806.501160	682.000000
806.536743	695.000000
806.572327	709.000000
806.607910	699.000000
806.643494	692.000000
806.679077	682.000000
806.714661	683.000000
806.750244	690.000000
806.785828	667.000000
806.821350	678.000000
806.856934	684.000000
806.892517	673.000000
806.928101	664.000000
806.963684	647.000000
806.999268	665.000000
807.034790	647.000000
807.070374	671.000000
807.105896	647.000000
807.141479	650.000000
807.177063	648.000000
807.212585	636.000000
807.248169	634.000000
807.283752	643.000000
807.319275	646.000000
807.354858	645.000000
807.390381	628.000000
807.425903	626.000000
807.461487	624.000000
807.497070	619.000000
807.532593	618.000000
807.568115	626.000000
807.603699	611.000000
807.639221	614.000000
807.674744	609.000000
807.710266	625.000000
807.745850	611.000000
807.781372	615.000000
807.816895	605.000000
807.852417	617.000000
807.888000	605.000000
807.923523	606.000000
807.959045	602.000000
807.994629	594.000000
808.030090	584.000000
808.065613	601.000000
808.101135	589.000000
808.136658	589.000000
808.172241	593.000000
808.207764	607.000000
808.243225	595.000000
808.278809	584.000000
808.314270	596.000000
808.349792	584.000000
808.385315	589.000000
808.420837	594.000000
808.456360	600.000000
808.491882	586.000000
808.527344	585.000000
808.562866	590.000000
808.598389	585.000000
808.633850	580.000000
808.669434	583.000000
808.704895	589.000000
808.740417	596.000000
808.775940	581.000000
808.811462	576.000000
808.846924	572.000000
808.882385	566.000000
808.917847	553.000000
808.953369	569.000000
808.988892	552.000000
809.024353	570.000000
809.059875	561.000000
809.095398	569.000000
809.130798	546.000000
809.166321	554.000000
809.201843	564.000000
809.237305	554.000000
809.272766	567.000000
809.308228	550.000000
809.343750	549.000000
809.379211	559.000000
809.414734	550.000000
809.450134	556.000000
809.485657	528.000000
809.521118	536.000000
809.556580	541.000000
809.592102	533.000000
809.627502	525.000000
809.663025	524.000000
809.698486	527.000000
809.733887	527.000000
809.769409	521.000000
809.804871	513.000000
809.840271	520.000000
809.875793	520.000000
809.911194	524.000000
809.946655	509.000000
809.982178	507.000000
810.017639	512.000000
810.053040	500.000000
810.088501	505.000000
810.123901	511.000000
810.159424	500.000000
810.194885	500.000000
810.230286	508.000000
810.265747	503.000000
810.301208	488.000000
810.336609	486.000000
810.372070	481.000000
810.407532	484.000000
810.442932	485.000000
810.478394	489.000000
810.513794	480.000000
810.549255	490.000000
810.584717	479.000000
810.620117	470.000000
810.655518	477.000000
810.690979	477.000000
810.726379	477.000000
810.761841	472.000000
810.797302	468.000000
810.832642	472.000000
810.868103	485.000000
810.903564	464.000000
810.938904	472.000000
810.974365	458.000000
811.009827	469.000000
811.045166	463.000000
811.080627	454.000000
811.115967	457.000000
811.151428	468.000000
811.186829	460.000000
811.222229	459.000000
811.257629	455.000000
811.293091	464.000000
811.328430	472.000000
811.363892	466.000000
811.399292	459.000000
811.434631	461.000000
811.470093	454.000000
811.505493	451.000000
811.540833	456.000000
811.576294	463.000000
811.611694	443.000000
811.647034	444.000000
811.682434	449.000000
811.717773	456.000000
811.753235	455.000000
811.788635	452.000000
811.823975	452.000000
811.859375	460.000000
811.894775	441.000000
811.930115	450.000000
811.965515	453.000000
812.000916	454.000000
812.036255	443.000000
812.071655	447.000000
812.106995	439.000000
812.142395	440.000000
812.177795	446.000000
812.213196	439.000000
812.248474	445.000000
812.283875	432.000000
812.319214	432.000000
812.354614	434.000000
812.390015	428.000000
812.425293	435.000000
812.460693	436.000000
812.496094	434.000000
812.531433	423.000000
812.566772	421.000000
812.602173	421.000000
812.637451	424.000000
812.672852	421.000000
812.708191	431.000000
812.743530	417.000000
812.778931	413.000000
812.814270	408.000000
812.849609	419.000000
812.884949	401.000000
812.920227	403.000000
812.955627	426.000000
812.990967	417.000000
813.026306	406.000000
813.061646	397.000000
813.096985	390.000000
813.132324	385.000000
813.167664	393.000000
813.203003	398.000000
813.238281	392.000000
813.273682	385.000000
813.308960	377.000000
813.344299	381.000000
813.379639	389.000000
813.414978	387.000000
813.450256	380.000000
813.485596	379.000000
813.520874	377.000000
813.556213	374.000000
813.591614	385.000000
813.626831	369.000000
813.662170	379.000000
813.697510	385.000000
813.732788	379.000000
813.768127	377.000000
813.803467	380.000000
813.838745	369.000000
813.874084	373.000000
813.909363	366.000000
813.944641	376.000000
813.979980	364.000000
814.015320	363.000000
814.050598	370.000000
814.085876	367.000000
814.121155	361.000000
814.156494	363.000000
814.191772	364.000000
814.227051	364.000000
814.262390	373.000000
814.297668	363.000000
814.332947	361.000000
814.368225	355.000000
814.403564	358.000000
814.438782	359.000000
814.474121	359.000000
814.509338	351.000000
814.544617	369.000000
814.579956	355.000000
814.615173	361.000000
814.650513	362.000000
814.685791	355.000000
814.721008	352.000000
814.756348	358.000000
814.791626	342.000000
814.826843	354.000000
814.862122	347.000000
814.897400	345.000000
814.932678	347.000000
814.967957	354.000000
815.003235	344.000000
815.038452	335.000000
815.073730	334.000000
815.108948	347.000000
815.144226	351.000000
815.179504	347.000000
815.214722	339.000000
815.250000	340.000000
815.285278	337.000000
815.320496	335.000000
815.355774	348.000000
815.391052	349.000000
815.426270	338.000000
815.461487	330.000000
815.496765	325.000000
815.531982	321.000000
815.567261	327.000000
815.602539	336.000000
815.637695	334.000000
815.672974	331.000000
815.708191	336.000000
815.743408	335.000000
815.778687	328.000000
815.813904	341.000000
815.849121	321.000000
815.884399	319.000000
815.919556	321.000000
815.954834	322.000000
815.990051	325.000000
816.025269	322.000000
816.060486	319.000000
816.095703	317.000000
816.130920	323.000000
816.166199	319.000000
816.201416	319.000000
816.236572	324.000000
816.271851	313.000000
816.307007	319.000000
816.342224	305.000000
816.377441	313.000000
816.412659	304.000000
816.447876	312.000000
816.483093	308.000000
816.518250	307.000000
816.553467	308.000000
816.588745	310.000000
816.623901	307.000000
816.659119	292.000000
816.694275	309.000000
816.729492	299.000000
816.764709	335.000000
816.799927	302.000000
816.835083	306.000000
816.870300	298.000000
816.905457	306.000000
816.940674	308.000000
816.975830	295.000000
817.010986	294.000000
817.046204	295.000000
817.081421	287.000000
817.116577	288.000000
817.151733	297.000000
817.186951	298.000000
817.222107	299.000000
817.257324	299.000000
817.292419	302.000000
817.327637	286.000000
817.362854	299.000000
817.398010	289.000000
817.433167	294.000000
817.468323	286.000000
817.503479	294.000000
817.538635	300.000000
817.573853	293.000000
817.608948	291.000000
817.644165	290.000000
817.679321	293.000000
817.714478	289.000000
817.749634	285.000000
817.784790	302.000000
817.819946	291.000000
817.855103	278.000000
817.890198	287.000000
817.925415	275.000000
817.960571	291.000000
817.995667	288.000000
818.030823	289.000000
818.066040	279.000000
818.101135	288.000000
818.136292	288.000000
818.171448	280.000000
818.206543	291.000000
818.241699	282.000000
818.276855	289.000000
818.311951	288.000000
818.347107	283.000000
818.382263	290.000000
818.417358	291.000000
818.452515	294.000000
818.487610	297.000000
818.522766	283.000000
818.557922	290.000000
818.593018	286.000000
818.628113	285.000000
818.663269	278.000000
818.698364	287.000000
818.733521	279.000000
818.768677	282.000000
818.803711	280.000000
818.838867	275.000000
818.874023	279.000000
818.909058	272.000000
818.944214	273.000000
818.979370	274.000000
819.014404	277.000000
819.049561	263.000000
819.084595	275.000000
819.119751	261.000000
819.154846	278.000000
819.189941	269.000000
819.225037	265.000000
819.260193	259.000000
819.295227	269.000000
819.330322	262.000000
819.365479	262.000000
819.400513	288.000000
819.435608	262.000000
819.470764	248.000000
819.505798	253.000000
819.540894	262.000000
819.575989	259.000000
819.611084	266.000000
819.646179	277.000000
819.681213	271.000000
819.716309	265.000000
819.751404	264.000000
819.786438	267.000000
819.821533	251.000000
819.856628	259.000000
819.891663	259.000000
819.926758	270.000000
819.961853	268.000000
819.996887	255.000000
820.031982	264.000000
820.067017	255.000000
820.102112	289.000000
820.137207	250.000000
820.172302	273.000000
820.207275	252.000000
820.242371	251.000000
820.277405	251.000000
820.312500	257.000000
820.347534	252.000000
820.382568	264.000000
820.417664	250.000000
820.452759	252.000000
820.487732	252.000000
820.522827	255.000000
820.557861	244.000000
820.592896	253.000000
820.627930	254.000000
820.662964	247.000000
820.698059	257.000000
820.733093	257.000000
820.768127	253.000000
820.803162	251.000000
820.838196	246.000000
820.873230	252.000000
820.908264	249.000000
820.943298	243.000000
820.978333	252.000000
821.013367	255.000000
821.048401	253.000000
821.083435	258.000000
821.118469	247.000000
821.153503	249.000000
821.188477	249.000000
821.223511	244.000000
821.258484	249.000000
821.293579	249.000000
821.328613	243.000000
821.363647	247.000000
821.398621	236.000000
821.433655	242.000000
821.468628	262.000000
821.503662	244.000000
821.538696	246.000000
821.573669	236.000000
821.608704	249.000000
821.643677	241.000000
821.678650	250.000000
821.713684	258.000000
821.748718	249.000000
821.783691	241.000000
821.818726	249.000000
821.853638	245.000000
821.888672	247.000000
821.923706	240.000000
821.958618	238.000000
821.993652	237.000000
822.028687	246.000000
822.063599	246.000000
822.098633	242.000000
822.133667	228.000000
822.168579	240.000000
822.203613	240.000000
822.238586	234.000000
822.273560	241.000000
822.308533	236.000000
822.343567	235.000000
822.378479	238.000000
822.413452	236.000000
822.448425	229.000000
822.483398	245.000000
822.518372	239.000000
822.553345	230.000000
822.588318	245.000000
822.623291	236.000000
822.658203	235.000000
822.693237	239.000000
822.728210	226.000000
822.763123	236.000000
822.798096	229.000000
822.833069	235.000000
822.867981	231.000000
822.902954	237.000000
822.937927	229.000000
822.972900	243.000000
823.007874	218.000000
823.042725	238.000000
823.077698	241.000000
823.112671	223.000000
823.147583	223.000000
823.182556	232.000000
823.217529	232.000000
823.252441	227.000000
823.287415	240.000000
823.322388	231.000000
823.357239	228.000000
823.392212	239.000000
823.427185	229.000000
823.462097	228.000000
823.497009	230.000000
823.531982	225.000000
823.566895	227.000000
823.601807	225.000000
823.636719	226.000000
823.671631	233.000000
823.706604	221.000000
823.741455	237.000000
823.776428	219.000000
823.811340	234.000000
823.846252	237.000000
823.881165	237.000000
823.916138	227.000000
823.950989	238.000000
823.985901	223.000000
824.020813	228.000000
824.055725	223.000000
824.090637	220.000000
824.125610	227.000000
824.160461	234.000000
824.195374	234.000000
824.230225	230.000000
824.265198	222.000000
824.300110	218.000000
824.334961	237.000000
824.369873	210.000000
824.404785	230.000000
824.439636	229.000000
824.474548	217.000000
824.509460	206.000000
824.544312	227.000000
824.579224	224.000000
824.614075	233.000000
824.648987	219.000000
824.683899	226.000000
824.718811	219.000000
824.753662	229.000000
824.788574	226.000000
824.823364	223.000000
824.858276	213.000000
824.893188	231.000000
824.928040	229.000000
824.962952	224.000000
824.997803	222.000000
825.032654	222.000000
825.067566	224.000000
825.102417	221.000000
825.137268	218.000000
825.172119	224.000000
825.206970	219.000000
825.241882	221.000000
825.276733	216.000000
825.311646	219.000000
825.346436	219.000000
825.381348	214.000000
825.416138	221.000000
825.450989	215.000000
825.485901	209.000000
825.520691	212.000000
825.555542	213.000000
825.590454	215.000000
825.625244	211.000000
825.660095	229.000000
825.695007	225.000000
825.729797	218.000000
825.764648	215.000000
825.799438	216.000000
825.834290	220.000000
825.869202	207.000000
825.903992	222.000000
825.938843	208.000000
825.973694	216.000000
826.008484	226.000000
826.043335	211.000000
826.078186	206.000000
826.112976	225.000000
826.147827	223.000000
826.182678	227.000000
826.217468	205.000000
826.252319	224.000000
826.287109	205.000000
826.321899	227.000000
826.356750	212.000000
826.391541	211.000000
826.426392	215.000000
826.461182	214.000000
826.495972	207.000000
826.530823	205.000000
826.565613	218.000000
826.600403	212.000000
826.635254	213.000000
826.670044	206.000000
826.704834	206.000000
826.739685	212.000000
826.774475	215.000000
826.809265	215.000000
826.844055	208.000000
826.878906	223.000000
826.913635	217.000000
826.948425	218.000000
826.983215	217.000000
827.018005	222.000000
827.052856	208.000000
827.087585	218.000000
827.122375	207.000000
827.157227	207.000000
827.191956	225.000000
827.226746	210.000000
827.261536	219.000000
827.296265	206.000000
827.331116	211.000000
827.365906	209.000000
827.400635	210.000000
827.435425	204.000000
827.470215	216.000000
827.504944	204.000000
827.539734	215.000000
827.574463	206.000000
827.609253	215.000000
827.644043	210.000000
827.678772	216.000000
827.713562	206.000000
827.748352	210.000000
827.783081	205.000000
827.817871	215.000000
827.852600	204.000000
827.887329	210.000000
827.922119	198.000000
827.956848	219.000000
827.991638	219.000000
828.026367	212.000000
828.061157	207.000000
828.095886	208.000000
828.130615	223.000000
828.165344	199.000000
828.200073	205.000000
828.234863	204.000000
828.269592	205.000000
828.304321	216.000000
828.339111	206.000000
828.373779	203.000000
828.408569	212.000000
828.443298	218.000000
828.477966	208.000000
828.512756	206.000000
828.547424	206.000000
828.582214	200.000000
828.616943	208.000000
828.651672	203.000000
828.686340	212.000000
828.721130	203.000000
828.755798	207.000000
828.790527	205.000000
828.825256	210.000000
828.859924	206.000000
828.894714	215.000000
828.929443	211.000000
828.964111	204.000000
828.998840	210.000000
829.033569	202.000000
829.068237	203.000000
829.102966	202.000000
829.137634	198.000000
829.172363	207.000000
829.207092	206.000000
829.241821	201.000000
829.276489	202.000000
829.311157	209.000000
829.345825	200.000000
829.380554	217.000000
829.415283	202.000000
829.449951	198.000000
829.484619	214.000000
829.519348	215.000000
829.554016	201.000000
829.588745	207.000000
829.623413	199.000000
829.658081	220.000000
829.692749	203.000000
829.727417	212.000000
829.762146	205.000000
829.796814	199.000000
829.831482	205.000000
829.866150	205.000000
829.900879	204.000000
829.935486	208.000000
829.970154	204.000000
830.004883	215.000000
830.039490	207.000000
830.074219	203.000000
830.108887	207.000000
830.143494	202.000000
830.178223	200.000000
830.212891	202.000000
830.247498	205.000000
830.282166	211.000000
830.316772	213.000000
830.351501	200.000000
830.386169	201.000000
830.420776	197.000000
830.455444	202.000000
830.490112	199.000000
830.524719	197.000000
830.559387	206.000000
830.594055	205.000000
830.628662	205.000000
830.663330	207.000000
830.697998	212.000000
830.732605	205.000000
830.767273	204.000000
830.801941	204.000000
830.836487	213.000000
830.871155	203.000000
830.905762	204.000000
830.940430	200.000000
830.975098	204.000000
831.009644	203.000000
831.044312	214.000000
831.078979	208.000000
831.113525	193.000000
831.148193	202.000000
831.182861	204.000000
831.217407	204.000000
831.252075	224.000000
831.286621	199.000000
831.321289	201.000000
831.355896	202.000000
831.390564	210.000000
831.425110	205.000000
831.459778	213.000000
831.494324	214.000000
831.528931	203.000000
831.563599	201.000000
831.598145	197.000000
831.632751	199.000000
831.667419	202.000000
831.701965	206.000000
831.736572	211.000000
831.771179	192.000000
831.805786	204.000000
831.840393	205.000000
831.874939	192.000000
831.909546	209.000000
831.944153	196.000000
831.978760	205.000000
832.013306	201.000000
832.047913	212.000000
832.082458	213.000000
832.117065	200.000000
832.151672	212.000000
832.186218	203.000000
832.220825	206.000000
832.255432	192.000000
832.289978	202.000000
832.324585	206.000000
832.359192	204.000000
832.393677	202.000000
832.428284	209.000000
832.462830	199.000000
832.497437	204.000000
832.531982	207.000000
832.566589	202.000000
832.601135	205.000000
832.635681	193.000000
832.670227	201.000000
832.704773	209.000000
832.739380	205.000000
832.773926	205.000000
832.808472	202.000000
832.843079	200.000000
832.877563	205.000000
832.912170	198.000000
832.946716	199.000000
832.981201	208.000000
833.015808	208.000000
833.050293	201.000000
833.084839	197.000000
833.119446	200.000000
833.153992	209.000000
833.188477	199.000000
833.223022	206.000000
833.257568	204.000000
833.292114	209.000000
833.326660	216.000000
833.361145	201.000000
833.395691	191.000000
833.430237	201.000000
833.464783	208.000000
833.499329	197.000000
833.533875	195.000000
833.568359	205.000000
833.602905	208.000000
833.637390	206.000000
833.671875	200.000000
833.706421	200.000000
833.740906	195.000000
833.775452	195.000000
833.809998	203.000000
833.844482	213.000000
833.879028	203.000000
833.913513	203.000000
833.947998	210.000000
833.982544	199.000000
834.017090	198.000000
834.051514	191.000000
834.086060	205.000000
834.120544	204.000000
834.155029	207.000000
834.189575	194.000000
834.223999	204.000000
834.258545	203.000000
834.293030	206.000000
834.327515	201.000000
834.362000	201.000000
834.396545	205.000000
834.430969	203.000000
834.465454	205.000000
834.500000	195.000000
834.534424	203.000000
834.568970	195.000000
834.603455	193.000000
834.637878	199.000000
834.672363	202.000000
834.706909	204.000000
834.741333	202.000000
834.775818	195.000000
834.810242	197.000000
834.844727	201.000000
834.879211	205.000000
834.913635	206.000000
834.948181	206.000000
834.982666	204.000000
835.017090	201.000000
835.051575	203.000000
835.086060	200.000000
835.120483	211.000000
835.154907	202.000000
835.189331	205.000000
835.223816	208.000000
835.258301	196.000000
835.292786	201.000000
835.327209	210.000000
835.361694	198.000000
835.396057	205.000000
835.430542	206.000000
835.465027	207.000000
835.499390	199.000000
835.533875	220.000000
835.568359	201.000000
835.602722	193.000000
835.637207	207.000000
835.671692	192.000000
835.706055	220.000000
835.740540	203.000000
835.774902	204.000000
835.809387	204.000000
835.843811	197.000000
835.878235	208.000000
835.912659	197.000000
835.947083	195.000000
835.981506	202.000000
836.015930	194.000000
836.050354	206.000000
836.084778	209.000000
836.119202	208.000000
836.153625	213.000000
836.187988	193.000000
836.222473	197.000000
836.256897	204.000000
836.291260	197.000000
836.325684	204.000000
836.360046	203.000000
836.394470	199.000000
836.428894	210.000000
836.463318	201.000000
836.497681	205.000000
836.532104	211.000000
836.566467	207.000000
836.600891	200.000000
836.635315	210.000000
836.669678	210.000000
836.704102	207.000000
836.738525	205.000000
836.772888	198.000000
836.807251	198.000000
836.841675	208.000000
836.876038	194.000000
836.910461	202.000000
836.944763	208.000000
836.979187	201.000000
837.013611	209.000000
837.047974	193.000000
837.082336	218.000000
837.116699	209.000000
837.151062	201.000000
837.185486	196.000000
837.219849	193.000000
837.254211	211.000000
837.288574	198.000000
837.322937	198.000000
837.357300	188.000000
837.391663	217.000000
837.426086	206.000000
837.460388	203.000000
837.494751	206.000000
837.529114	200.000000
837.563477	204.000000
837.597839	206.000000
837.632141	202.000000
837.666565	203.000000
837.700928	202.000000
837.735229	205.000000
837.769592	204.000000
837.803955	209.000000
837.838257	193.000000
837.872620	200.000000
837.906982	211.000000
837.941284	201.000000
837.975647	204.000000
838.010010	211.000000
838.044312	199.000000
838.078674	200.000000
838.112976	207.000000
838.147339	206.000000
838.181702	202.000000
838.216003	211.000000
838.250366	204.000000
838.284668	207.000000
838.318970	197.000000
838.353333	199.000000
838.387634	203.000000
838.421936	204.000000
838.456299	201.000000
838.490601	212.000000
838.524902	208.000000
838.559265	206.000000
838.593567	210.000000
838.627869	195.000000
838.662170	205.000000
838.696472	193.000000
838.730774	202.000000
838.765137	206.000000
838.799377	188.000000
838.833740	200.000000
838.868042	210.000000
838.902283	193.000000
838.936646	212.000000
838.970947	205.000000
839.005188	209.000000
839.039551	194.000000
839.073792	209.000000
839.108093	200.000000
839.142395	212.000000
839.176697	195.000000
839.210937	206.000000
839.245300	216.000000
839.279541	197.000000
839.313843	203.000000
839.348145	209.000000
839.382385	208.000000
839.416687	210.000000
839.450989	208.000000
839.485229	199.000000
839.519531	202.000000
839.553833	212.000000
839.588013	201.000000
839.622314	207.000000
839.656555	203.000000
839.690857	207.000000
839.725159	197.000000
839.759460	200.000000
839.793640	203.000000
839.827942	201.000000
839.862183	201.000000
839.896423	200.000000
839.930725	213.000000
839.964966	209.000000
839.999207	215.000000
840.033508	209.000000
840.067688	199.000000
840.101990	208.000000
840.136230	203.000000
840.170471	209.000000
840.204712	200.000000
840.238953	195.000000
840.273193	204.000000
840.307434	203.000000
840.341736	201.000000
840.375916	196.000000
840.410217	203.000000
840.444397	212.000000
840.478638	206.000000
840.512878	204.000000
840.547119	204.000000
840.581360	203.000000
840.615601	210.000000
840.649780	212.000000
840.684021	204.000000
840.718262	210.000000
840.752441	209.000000
840.786682	208.000000
840.820862	209.000000
840.855103	212.000000
840.889343	205.000000
840.923584	211.000000
840.957764	206.000000
840.992004	209.000000
841.026184	215.000000
841.060425	204.000000
841.094666	200.000000
841.128845	208.000000
841.163025	205.000000
841.197266	209.000000
841.231445	202.000000
841.265686	205.000000
841.299866	196.000000
841.334045	214.000000
841.368286	204.000000
841.402405	212.000000
841.436646	205.000000
841.470825	204.000000
841.505005	201.000000
841.539185	193.000000
841.573425	199.000000
841.607544	204.000000
841.641785	199.000000
841.675964	200.000000
841.710144	200.000000
841.744324	200.000000
841.778503	200.000000
841.812683	201.000000
841.846863	209.000000
841.881042	210.000000
841.915222	200.000000
841.949402	221.000000
841.983521	192.000000
842.017700	203.000000
842.051880	203.000000
842.086060	209.000000
842.120239	206.000000
842.154419	198.000000
842.188538	201.000000
842.222717	204.000000
842.256897	211.000000
842.291016	205.000000
842.325195	210.000000
842.359375	216.000000
842.393494	216.000000
842.427673	201.000000
842.461853	204.000000
842.495911	213.000000
842.530090	209.000000
842.564209	205.000000
842.598389	209.000000
842.632568	205.000000
842.666626	210.000000
842.700806	199.000000
842.734985	198.000000
842.769043	200.000000
842.803223	204.000000
842.837402	198.000000
842.871460	199.000000
842.905640	211.000000
842.939697	202.000000
842.973877	201.000000
843.007996	214.000000
843.042175	209.000000
843.076233	199.000000
843.110413	204.000000
843.144470	214.000000
843.178589	202.000000
843.212769	200.000000
843.246826	210.000000
843.280945	201.000000
843.315125	204.000000
843.349182	196.000000
843.383301	208.000000
843.417419	219.000000
843.451538	207.000000
843.485657	202.000000
843.519714	205.000000
843.553833	207.000000
843.587952	197.000000
843.622070	202.000000
843.656128	209.000000
843.690247	200.000000
843.724304	204.000000
843.758423	204.000000
843.792542	201.000000
843.826599	205.000000
843.860718	205.000000
843.894836	197.000000
843.928894	207.000000
843.963013	202.000000
843.997070	201.000000
844.031128	199.000000
844.065247	211.000000
844.099304	206.000000
844.133362	205.000000
844.167480	207.000000
844.201599	214.000000
844.235596	206.000000
844.269714	204.000000
844.303711	205.000000
844.337830	198.000000
844.371948	208.000000
844.405945	204.000000
844.440063	195.000000
844.474121	224.000000
844.508118	201.000000
844.542236	199.000000
844.576294	203.000000
844.610352	197.000000
844.644409	205.000000
844.678406	197.000000
844.712524	203.000000
844.746582	212.000000
844.780640	203.000000
844.814636	205.000000
844.848755	212.000000
844.882751	208.000000
844.916809	209.000000
844.950867	210.000000
844.984863	218.000000
845.018921	203.000000
845.052979	202.000000
845.086975	200.000000
845.121033	192.000000
845.155090	196.000000
845.189087	214.000000
845.223145	200.000000
845.257141	205.000000
845.291199	210.000000
845.325256	214.000000
845.359253	209.000000
845.393250	216.000000
845.427307	198.000000
845.461304	208.000000
845.495361	203.000000
845.529358	212.000000
845.563354	201.000000
845.597412	203.000000
845.631409	207.000000
845.665405	213.000000
845.699463	205.000000
845.733459	203.000000
845.767456	210.000000
845.801453	207.000000
845.835449	204.000000
845.869446	211.000000
845.903503	208.000000
845.937439	198.000000
845.971497	213.000000
846.005493	199.000000
846.039429	202.000000
846.073486	215.000000
846.107483	206.000000
846.141418	204.000000
846.175476	206.000000
846.209473	216.000000
846.243408	198.000000
846.277405	206.000000
846.311401	202.000000
846.345337	203.000000
846.379395	212.000000
846.413330	203.000000
846.447327	211.000000
846.481323	197.000000
846.515259	208.000000
846.549255	206.000000
846.583252	210.000000
846.617187	199.000000
846.651184	207.000000
846.685120	205.000000
846.719055	214.000000
846.753052	209.000000
846.786987	213.000000
846.820984	196.000000
846.854980	210.000000
846.888916	198.000000
846.922852	209.000000
846.956848	210.000000
846.990723	201.000000
847.024719	201.000000
847.058716	207.000000
847.092590	211.000000
847.126587	209.000000
847.160522	201.000000
847.194458	210.000000
847.228455	201.000000
847.262390	200.000000
847.296265	202.000000
847.330261	215.000000
847.364136	201.000000
847.398132	202.000000
847.432068	201.000000
847.466003	202.000000
847.499939	205.000000
847.533875	208.000000
847.567749	198.000000
847.601746	205.000000
847.635681	207.000000
847.669556	192.000000
847.703491	211.000000
847.737427	223.000000
847.771301	202.000000
847.805237	208.000000
847.839233	207.000000
847.873108	203.000000
847.907043	205.000000
847.940918	211.000000
847.974854	209.000000
848.008789	210.000000
848.042664	208.000000
848.076538	209.000000
848.110474	206.000000
848.144348	204.000000
848.178284	202.000000
848.212219	204.000000
848.246094	201.000000
848.279968	204.000000
848.313904	208.000000
848.347778	204.000000
848.381653	201.000000
848.415588	198.000000
848.449463	205.000000
848.483337	203.000000
848.517212	211.000000
848.551086	205.000000
848.585022	194.000000
848.618835	212.000000
848.652771	203.000000
848.686646	195.000000
848.720520	214.000000
848.754395	205.000000
848.788330	207.000000
848.822144	208.000000
848.856018	205.000000
848.889954	211.000000
848.923767	201.000000
848.957642	199.000000
848.991577	212.000000
849.025391	203.000000
849.059265	203.000000
849.093079	201.000000
849.126953	206.000000
849.160828	209.000000
849.194641	203.000000
849.228577	206.000000
849.262451	201.000000
849.296265	203.000000
849.330139	200.000000
849.364014	208.000000
849.397827	207.000000
849.431702	206.000000
849.465515	204.000000
849.499329	195.000000
849.533203	200.000000
849.567078	192.000000
849.600891	204.000000
849.634766	208.000000
849.668518	209.000000
849.702393	208.000000
849.736267	197.000000
849.770020	223.000000
849.803894	206.000000
849.837769	205.000000
849.871521	203.000000
849.905396	214.000000
849.939270	200.000000
849.973022	205.000000
850.006897	207.000000
850.040710	208.000000
850.074524	206.000000
850.108337	200.000000
850.142151	210.000000
850.175964	210.000000
850.209778	202.000000
850.243530	195.000000
850.277405	211.000000
850.311218	205.000000
850.344971	202.000000
850.378845	217.000000
850.412659	201.000000
850.446411	210.000000
850.480225	202.000000
850.514038	212.000000
850.547791	205.000000
850.581665	203.000000
850.615417	201.000000
850.649231	204.000000
850.683044	207.000000
850.716858	204.000000
850.750610	205.000000
850.784424	209.000000
850.818176	201.000000
850.851929	202.000000
850.885742	201.000000
850.919495	202.000000
850.953308	211.000000
850.987122	207.000000
851.020874	198.000000
851.054626	191.000000
851.088440	208.000000
851.122192	206.000000
851.156006	208.000000
851.189697	205.000000
851.223511	202.000000
851.257263	210.000000
851.291077	208.000000
851.324829	198.000000
851.358582	204.000000
851.392334	200.000000
851.426086	197.000000
851.459900	210.000000
851.493591	206.000000
851.527344	203.000000
851.561157	205.000000
851.594849	206.000000
851.628662	204.000000
851.662415	212.000000
851.696106	208.000000
851.729858	206.000000
851.763611	202.000000
851.797363	208.000000
851.831116	199.000000
851.864868	211.000000
851.898560	210.000000
851.932312	200.000000
851.966064	207.000000
851.999817	207.000000
852.033569	201.000000
852.067261	213.000000
852.101013	202.000000
852.134766	206.000000
852.168457	195.000000
852.202209	209.000000
852.235901	196.000000
852.269592	209.000000
852.303345	208.000000
852.337036	205.000000
852.370789	205.000000
852.404541	210.000000
852.438171	197.000000
852.471924	207.000000
852.505676	193.000000
852.539307	206.000000
852.573059	200.000000
852.606812	197.000000
852.640442	202.000000
852.674194	211.000000
852.707886	220.000000
852.741577	211.000000
852.775269	195.000000
852.809021	206.000000
852.842651	205.000000
852.876404	212.000000
852.910034	206.000000
852.943787	212.000000
852.977478	210.000000
853.011108	203.000000
853.044861	201.000000
853.078552	209.000000
853.112183	207.000000
853.145874	207.000000
853.179626	193.000000
853.213257	208.000000
853.246948	201.000000
853.280640	211.000000
853.314270	206.000000
853.347961	210.000000
853.381653	209.000000
853.415283	208.000000
853.448975	201.000000
853.482605	205.000000
853.516296	205.000000
853.549988	196.000000
853.583618	209.000000
853.617310	205.000000
853.651001	206.000000
853.684631	199.000000
853.718323	202.000000
853.751953	209.000000
853.785583	199.000000
853.819275	204.000000
853.852966	208.000000
853.886536	195.000000
853.920227	199.000000
853.953918	201.000000
853.987488	202.000000
854.021179	206.000000
854.054749	208.000000
854.088440	203.000000
854.122131	201.000000
854.155701	206.000000
854.189331	206.000000
854.223022	206.000000
854.256592	209.000000
854.290283	202.000000
854.323914	207.000000
854.357483	201.000000
854.391174	208.000000
854.424744	212.000000
854.458374	205.000000
854.492065	215.000000
854.525696	209.000000
854.559265	211.000000
854.592896	218.000000
854.626465	210.000000
854.660095	203.000000
854.693787	208.000000
854.727356	203.000000
854.760986	208.000000
854.794617	203.000000
854.828186	207.000000
854.861816	209.000000
854.895447	212.000000
854.929016	207.000000
854.962585	208.000000
854.996155	213.000000
855.029785	209.000000
855.063416	204.000000
855.097046	212.000000
855.130615	197.000000
855.164185	212.000000
855.197754	204.000000
855.231384	210.000000
855.264954	201.000000
855.298523	210.000000
855.332153	204.000000
855.365723	214.000000
855.399292	200.000000
855.432922	207.000000
855.466492	202.000000
855.500061	197.000000
855.533630	201.000000
855.567200	209.000000
855.600769	205.000000
855.634338	207.000000
855.667969	205.000000
855.701477	203.000000
855.735046	199.000000
855.768616	195.000000
855.802185	208.000000
855.835754	221.000000
855.869324	193.000000
855.902893	207.000000
855.936401	213.000000
855.969971	205.000000
856.003540	201.000000
856.037109	213.000000
856.070618	203.000000
856.104187	200.000000
856.137695	207.000000
856.171265	192.000000
856.204834	207.000000
856.238403	212.000000
856.271912	206.000000
856.305481	207.000000
856.338989	197.000000
856.372559	203.000000
856.406128	208.000000
856.439636	208.000000
856.473145	200.000000
856.506653	207.000000
856.540222	204.000000
856.573792	207.000000
856.607300	210.000000
856.640808	199.000000
856.674377	206.000000
856.707825	232.000000
856.741394	208.000000
856.774902	199.000000
856.808472	199.000000
856.841980	206.000000
856.875488	213.000000
856.908936	198.000000
856.942505	207.000000
856.976013	200.000000
857.009521	202.000000
857.043030	210.000000
857.076477	204.000000
857.110046	212.000000
857.143555	205.000000
857.177063	208.000000
857.210571	202.000000
857.244080	199.000000
857.277527	208.000000
857.311035	208.000000
857.344543	209.000000
857.378052	204.000000
857.411499	209.000000
857.445068	220.000000
857.478516	202.000000
857.512024	195.000000
857.545532	204.000000
857.578979	206.000000
857.612427	202.000000
857.645874	203.000000
857.679382	202.000000
857.712891	213.000000
857.746399	203.000000
857.779846	211.000000
857.813354	206.000000
857.846741	204.000000
857.880249	198.000000
857.913757	206.000000
857.947266	205.000000
857.980652	207.000000
858.014160	201.000000
858.047546	201.000000
858.081055	200.000000
858.114563	210.000000
858.147949	196.000000
858.181458	208.000000
858.214844	206.000000
858.248352	198.000000
858.281799	209.000000
858.315308	218.000000
858.348694	203.000000
858.382141	213.000000
858.415588	209.000000
858.449036	211.000000
858.482483	205.000000
858.515930	204.000000
858.549377	205.000000
858.582825	213.000000
858.616211	213.000000
858.649658	206.000000
858.683105	200.000000
858.716553	200.000000
858.750000	200.000000
858.783386	202.000000
858.816833	197.000000
858.850281	202.000000
858.883728	209.000000
858.917114	203.000000
858.950562	215.000000
858.983948	214.000000
859.017395	209.000000
859.050781	204.000000
859.084167	199.000000
859.117615	196.000000
859.151062	209.000000
859.184448	197.000000
859.217834	206.000000
859.251282	201.000000
859.284668	200.000000
859.318054	195.000000
859.351440	202.000000
859.384888	212.000000
859.418274	198.000000
859.451721	193.000000
859.485046	207.000000
859.518494	211.000000
859.551819	204.000000
859.585266	203.000000
859.618652	207.000000
859.652039	198.000000
859.685425	199.000000
859.718811	198.000000
859.752197	193.000000
859.785583	209.000000
859.819031	214.000000
859.852356	211.000000
859.885742	199.000000
859.919067	208.000000
859.952454	203.000000
859.985901	208.000000
860.019287	205.000000
860.052612	0.000000
860.085999	0.000000
860.119324	0.000000
860.152710	0.000000
860.186096	0.000000
860.219421	0.000000
860.252808	0.000000
860.286133	0.000000
860.319519	0.000000
860.352905	0.000000
860.386292	0.000000
860.419617	0.000000
860.452942	0.000000
860.486267	0.000000
860.519653	0.000000
860.553040	0.000000
860.586365	0.000000
860.619690	0.000000
860.653076	0.000000
860.686340	0.000000
860.719727	0.000000
860.753113	0.000000
860.786377	0.000000
860.819763	0.000000
860.853027	0.000000
860.886414	0.000000
860.919739	0.000000
860.953125	0.000000
860.986389	0.000000
861.019714	0.000000
861.053040	0.000000
861.086365	0.000000
861.119690	0.000000
861.153076	0.000000
861.186340	0.000000
861.219666	0.000000
861.252930	0.000000
861.286316	0.000000
861.319641	0.000000
861.352905	0.000000
861.386230	0.000000
861.419495	0.000000
861.452820	0.000000
861.486145	0.000000
861.519470	0.000000
861.552734	0.000000
861.586060	0.000000
861.619324	0.000000
861.652649	0.000000
861.685974	0.000000
861.719238	0.000000
861.752563	0.000000
861.785828	0.000000
861.819092	0.000000
861.852417	0.000000
861.885742	0.000000
861.918945	0.000000
861.952271	0.000000
861.985535	0.000000
862.018799	0.000000
862.052124	0.000000
862.085449	0.000000
862.118652	0.000000
862.151978	0.000000
862.185181	0.000000
862.218506	0.000000
862.251770	0.000000
862.285034	0.000000
862.318298	0.000000
862.351562	0.000000
862.384827	0.000000
862.418091	0.000000
862.451355	0.000000
862.484619	0.000000
862.517883	0.000000
862.551086	0.000000
862.584351	0.000000
862.617676	0.000000
862.650940	0.000000
862.684143	0.000000
862.717407	0.000000
862.750610	0.000000
862.783875	0.000000
862.817139	0.000000
862.850342	0.000000
862.883606	0.000000
862.916870	0.000000
862.950073	0.000000
862.983337	0.000000
863.016602	0.000000
863.049805	0.000000
863.083069	0.000000
863.116211	0.000000
863.149475	0.000000
863.182739	0.000000
863.216003	0.000000
863.249146	0.000000
863.282410	0.000000
863.315613	0.000000
863.348816	0.000000
863.382080	0.000000
863.415222	0.000000
863.448486	0.000000
863.481689	0.000000
863.514893	0.000000
863.548157	0.000000
863.581360	0.000000
863.614502	0.000000
863.647766	0.000000
863.680908	0.000000
863.714172	0.000000
863.747375	0.000000
863.780579	0.000000
863.813721	0.000000
863.846985	0.000000
863.880127	0.000000
863.913330	0.000000
863.946533	0.000000
863.979675	0.000000
864.012939	0.000000
