Model Number: SPM-001-M   
Serial Number: 10090201
Firmware Version: 004.17.6
Exposure Time: 500000.000000us
Data Taken on: 17-08-2020 11:42:42.187
Wavelength	Amplitude
733.770752	0.000000
733.808716	0.000000
733.846619	0.000000
733.884583	0.000000
733.922546	0.000000
733.960449	0.000000
733.998413	0.000000
734.036377	0.000000
734.074219	0.000000
734.112183	0.000000
734.150085	0.000000
734.188049	0.000000
734.226013	0.000000
734.263916	0.000000
734.301819	0.000000
734.339783	0.000000
734.377686	0.000000
734.415588	0.000000
734.453552	0.000000
734.491455	0.000000
734.529419	0.000000
734.567322	0.000000
734.605225	0.000000
734.643127	0.000000
734.681091	0.000000
734.718994	0.000000
734.756897	0.000000
734.794800	0.000000
734.832703	0.000000
734.870667	0.000000
734.908508	0.000000
734.946472	0.000000
734.984375	0.000000
735.022278	0.000000
735.060181	0.000000
735.098083	0.000000
735.135986	0.000000
735.173889	0.000000
735.211792	0.000000
735.249695	0.000000
735.287598	0.000000
735.325439	0.000000
735.363403	0.000000
735.401306	0.000000
735.439148	0.000000
735.477051	0.000000
735.515015	0.000000
735.552856	0.000000
735.590759	0.000000
735.628662	0.000000
735.666504	0.000000
735.704407	0.000000
735.742310	0.000000
735.780212	0.000000
735.818115	0.000000
735.856018	0.000000
735.893860	0.000000
735.931763	0.000000
735.969604	0.000000
736.007507	0.000000
736.045410	0.000000
736.083252	0.000000
736.121094	0.000000
736.158997	0.000000
736.196838	0.000000
736.234741	0.000000
736.272644	0.000000
736.310486	0.000000
736.348389	0.000000
736.386230	0.000000
736.424072	0.000000
736.461975	0.000000
736.499878	0.000000
736.537720	0.000000
736.575562	0.000000
736.613403	0.000000
736.651306	0.000000
736.689148	0.000000
736.726990	0.000000
736.764893	0.000000
736.802734	0.000000
736.840576	0.000000
736.878418	0.000000
736.916321	0.000000
736.954102	0.000000
736.992004	0.000000
737.029846	0.000000
737.067688	0.000000
737.105530	0.000000
737.143372	0.000000
737.181213	0.000000
737.219116	0.000000
737.256897	0.000000
737.294739	0.000000
737.332642	0.000000
737.370422	0.000000
737.408325	0.000000
737.446167	0.000000
737.483948	0.000000
737.521790	0.000000
737.559692	0.000000
737.597473	0.000000
737.635315	0.000000
737.673157	0.000000
737.710999	0.000000
737.748840	0.000000
737.786621	0.000000
737.824463	0.000000
737.862305	0.000000
737.900085	0.000000
737.937927	0.000000
737.975769	0.000000
738.013550	0.000000
738.051392	0.000000
738.089233	0.000000
738.127014	0.000000
738.164856	0.000000
738.202698	0.000000
738.240479	0.000000
738.278320	0.000000
738.316162	0.000000
738.353943	0.000000
738.391785	0.000000
738.429565	0.000000
738.467407	0.000000
738.505188	0.000000
738.542969	0.000000
738.580811	0.000000
738.618652	0.000000
738.656372	0.000000
738.694214	0.000000
738.732056	0.000000
738.769836	0.000000
738.807617	0.000000
738.845459	0.000000
738.883240	0.000000
738.921021	0.000000
738.958862	0.000000
738.996582	0.000000
739.034424	0.000000
739.072205	0.000000
739.109985	0.000000
739.147827	0.000000
739.185547	0.000000
739.223389	0.000000
739.261169	0.000000
739.298889	0.000000
739.336731	0.000000
739.374512	0.000000
739.412292	0.000000
739.450073	0.000000
739.487854	0.000000
739.525635	0.000000
739.563416	0.000000
739.601135	0.000000
739.638977	0.000000
739.676758	0.000000
739.714478	0.000000
739.752258	0.000000
739.790100	0.000000
739.827820	0.000000
739.865601	0.000000
739.903381	0.000000
739.941101	0.000000
739.978882	207.000000
740.016724	204.000000
740.054443	203.000000
740.092224	206.000000
740.130005	196.000000
740.167725	201.000000
740.205505	194.000000
740.243225	210.000000
740.281006	202.000000
740.318787	195.000000
740.356506	207.000000
740.394287	203.000000
740.432068	194.000000
740.469727	198.000000
740.507507	201.000000
740.545288	204.000000
740.583008	207.000000
740.620789	201.000000
740.658569	192.000000
740.696228	203.000000
740.734009	208.000000
740.771790	192.000000
740.809509	210.000000
740.847229	196.000000
740.884949	202.000000
740.922729	196.000000
740.960449	199.000000
740.998169	198.000000
741.035950	200.000000
741.073669	201.000000
741.111389	204.000000
741.149170	214.000000
741.186890	211.000000
741.224609	210.000000
741.262329	204.000000
741.300110	210.000000
741.337769	196.000000
741.375549	194.000000
741.413208	206.000000
741.450989	198.000000
741.488708	202.000000
741.526367	199.000000
741.564148	211.000000
741.601868	209.000000
741.639526	200.000000
741.677307	201.000000
741.715027	206.000000
741.752686	196.000000
741.790466	211.000000
741.828186	202.000000
741.865845	199.000000
741.903564	193.000000
741.941345	202.000000
741.979004	196.000000
742.016724	207.000000
742.054382	202.000000
742.092102	206.000000
742.129822	195.000000
742.167480	199.000000
742.205200	198.000000
742.242920	207.000000
742.280640	207.000000
742.318359	198.000000
742.356079	201.000000
742.393738	207.000000
742.431396	202.000000
742.469116	210.000000
742.506775	194.000000
742.544495	205.000000
742.582214	213.000000
742.619873	204.000000
742.657593	209.000000
742.695251	206.000000
742.732971	203.000000
742.770630	207.000000
742.808289	205.000000
742.846008	208.000000
742.883728	204.000000
742.921326	205.000000
742.959045	203.000000
742.996765	204.000000
743.034424	205.000000
743.072083	200.000000
743.109802	204.000000
743.147400	196.000000
743.185120	206.000000
743.222839	200.000000
743.260437	206.000000
743.298157	202.000000
743.335754	195.000000
743.373474	200.000000
743.411133	195.000000
743.448792	199.000000
743.486450	206.000000
743.524170	196.000000
743.561768	197.000000
743.599487	206.000000
743.637146	216.000000
743.674744	198.000000
743.712463	198.000000
743.750122	203.000000
743.787720	203.000000
743.825439	197.000000
743.863037	208.000000
743.900696	199.000000
743.938416	228.000000
743.976013	201.000000
744.013672	211.000000
744.051331	206.000000
744.088928	213.000000
744.126587	206.000000
744.164307	204.000000
744.201904	201.000000
744.239563	205.000000
744.277222	210.000000
744.314819	203.000000
744.352478	210.000000
744.390137	206.000000
744.427734	205.000000
744.465393	199.000000
744.502991	197.000000
744.540649	206.000000
744.578308	206.000000
744.615906	192.000000
744.653564	194.000000
744.691223	207.000000
744.728821	199.000000
744.766418	200.000000
744.804077	204.000000
744.841675	199.000000
744.879333	196.000000
744.916992	195.000000
744.954529	202.000000
744.992187	210.000000
745.029785	197.000000
745.067444	195.000000
745.105042	204.000000
745.142639	200.000000
745.180298	213.000000
745.217896	202.000000
745.255493	199.000000
745.293152	203.000000
745.330750	207.000000
745.368347	213.000000
745.405945	207.000000
745.443604	207.000000
745.481140	207.000000
745.518799	196.000000
745.556396	208.000000
745.593994	205.000000
745.631592	204.000000
745.669189	194.000000
745.706787	209.000000
745.744385	201.000000
745.781982	205.000000
745.819580	198.000000
745.857178	203.000000
745.894775	209.000000
745.932373	199.000000
745.969971	206.000000
746.007568	191.000000
746.045166	215.000000
746.082764	208.000000
746.120300	207.000000
746.157898	202.000000
746.195557	205.000000
746.233093	193.000000
746.270691	208.000000
746.308228	207.000000
746.345825	207.000000
746.383423	206.000000
746.420959	199.000000
746.458557	198.000000
746.496155	200.000000
746.533691	201.000000
746.571289	198.000000
746.608887	201.000000
746.646423	202.000000
746.684021	203.000000
746.721619	201.000000
746.759155	203.000000
746.796753	193.000000
746.834351	191.000000
746.871826	200.000000
746.909424	212.000000
746.946960	202.000000
746.984558	204.000000
747.022156	207.000000
747.059631	209.000000
747.097229	204.000000
747.134827	201.000000
747.172363	213.000000
747.209900	206.000000
747.247498	198.000000
747.285034	209.000000
747.322571	213.000000
747.360168	199.000000
747.397644	194.000000
747.435242	210.000000
747.472778	213.000000
747.510315	200.000000
747.547913	200.000000
747.585388	213.000000
747.622925	202.000000
747.660522	193.000000
747.697998	198.000000
747.735596	205.000000
747.773132	198.000000
747.810669	203.000000
747.848206	204.000000
747.885742	201.000000
747.923279	193.000000
747.960815	203.000000
747.998352	203.000000
748.035889	212.000000
748.073425	203.000000
748.110901	199.000000
748.148437	197.000000
748.185974	203.000000
748.223511	214.000000
748.261047	206.000000
748.298584	201.000000
748.336060	205.000000
748.373596	206.000000
748.411133	221.000000
748.448608	202.000000
748.486145	207.000000
748.523682	210.000000
748.561218	209.000000
748.598755	208.000000
748.636292	205.000000
748.673706	202.000000
748.711243	209.000000
748.748718	204.000000
748.786255	202.000000
748.823792	206.000000
748.861267	196.000000
748.898804	204.000000
748.936340	203.000000
748.973816	201.000000
749.011292	208.000000
749.048828	206.000000
749.086304	205.000000
749.123840	219.000000
749.161316	196.000000
749.198792	213.000000
749.236328	209.000000
749.273743	205.000000
749.311279	202.000000
749.348816	207.000000
749.386230	205.000000
749.423767	193.000000
749.461304	204.000000
749.498718	201.000000
749.536255	207.000000
749.573730	216.000000
749.611206	206.000000
749.648682	202.000000
749.686218	199.000000
749.723633	208.000000
749.761169	195.000000
749.798645	197.000000
749.836060	206.000000
749.873596	200.000000
749.911011	202.000000
749.948547	216.000000
749.986023	199.000000
750.023437	205.000000
750.060913	192.000000
750.098450	197.000000
750.135864	204.000000
750.173340	208.000000
750.210815	205.000000
750.248291	194.000000
750.285767	207.000000
750.323242	209.000000
750.360657	205.000000
750.398132	196.000000
750.435608	206.000000
750.473022	198.000000
750.510498	204.000000
750.547974	195.000000
750.585449	200.000000
750.622925	192.000000
750.660339	210.000000
750.697815	202.000000
750.735291	201.000000
750.772644	215.000000
750.810120	202.000000
750.847595	205.000000
750.885010	199.000000
750.922485	213.000000
750.959961	202.000000
750.997375	203.000000
751.034851	211.000000
751.072266	205.000000
751.109680	196.000000
751.147156	206.000000
751.184570	206.000000
751.221985	202.000000
751.259460	195.000000
751.296875	203.000000
751.334290	200.000000
751.371765	208.000000
751.409180	206.000000
751.446594	208.000000
751.484070	205.000000
751.521423	205.000000
751.558899	203.000000
751.596375	212.000000
751.633728	213.000000
751.671204	218.000000
751.708618	200.000000
751.746033	203.000000
751.783447	194.000000
751.820801	196.000000
751.858276	209.000000
751.895691	201.000000
751.933105	201.000000
751.970520	204.000000
752.007935	200.000000
752.045349	208.000000
752.082764	207.000000
752.120178	202.000000
752.157532	199.000000
752.195007	203.000000
752.232422	207.000000
752.269775	213.000000
752.307190	206.000000
752.344543	199.000000
752.382019	201.000000
752.419434	202.000000
752.456787	202.000000
752.494202	209.000000
752.531616	202.000000
752.568970	209.000000
752.606384	201.000000
752.643799	203.000000
752.681152	210.000000
752.718567	210.000000
752.755981	191.000000
752.793335	206.000000
752.830750	189.000000
752.868164	214.000000
752.905518	196.000000
752.942932	210.000000
752.980225	198.000000
753.017639	209.000000
753.055054	206.000000
753.092407	206.000000
753.129822	203.000000
753.167175	215.000000
753.204529	205.000000
753.241943	196.000000
753.279358	197.000000
753.316650	205.000000
753.354065	205.000000
753.391479	211.000000
753.428772	216.000000
753.466187	208.000000
753.503479	195.000000
753.540894	204.000000
753.578308	193.000000
753.615601	199.000000
753.653015	203.000000
753.690369	197.000000
753.727722	201.000000
753.765076	198.000000
753.802490	198.000000
753.839783	193.000000
753.877136	201.000000
753.914551	216.000000
753.951843	201.000000
753.989258	206.000000
754.026611	202.000000
754.063904	202.000000
754.101257	198.000000
754.138611	190.000000
754.175964	206.000000
754.213318	218.000000
754.250610	193.000000
754.288025	197.000000
754.325378	195.000000
754.362671	206.000000
754.400024	202.000000
754.437378	214.000000
754.474670	211.000000
754.512085	198.000000
754.549438	209.000000
754.586731	199.000000
754.624084	205.000000
754.661438	202.000000
754.698730	212.000000
754.736084	202.000000
754.773376	202.000000
754.810730	207.000000
754.848083	205.000000
754.885315	209.000000
754.922668	197.000000
754.960022	199.000000
754.997314	209.000000
755.034668	202.000000
755.072021	204.000000
755.109253	204.000000
755.146606	214.000000
755.183960	202.000000
755.221252	212.000000
755.258545	208.000000
755.295898	213.000000
755.333191	220.000000
755.370544	204.000000
755.407776	207.000000
755.445129	202.000000
755.482422	211.000000
755.519714	201.000000
755.557068	198.000000
755.594360	194.000000
755.631653	211.000000
755.668945	215.000000
755.706299	209.000000
755.743530	216.000000
755.780884	212.000000
755.818176	208.000000
755.855408	211.000000
755.892761	209.000000
755.930054	204.000000
755.967346	205.000000
756.004639	217.000000
756.041870	208.000000
756.079224	216.000000
756.116516	204.000000
756.153748	213.000000
756.191040	216.000000
756.228394	208.000000
756.265625	205.000000
756.302917	214.000000
756.340210	211.000000
756.377441	215.000000
756.414795	221.000000
756.452087	211.000000
756.489319	198.000000
756.526611	215.000000
756.563843	213.000000
756.601135	222.000000
756.638428	221.000000
756.675659	209.000000
756.712952	213.000000
756.750244	211.000000
756.787476	213.000000
756.824768	216.000000
756.862061	210.000000
756.899292	252.000000
756.936584	212.000000
756.973816	226.000000
757.011047	226.000000
757.048340	208.000000
757.085632	211.000000
757.122864	229.000000
757.160156	215.000000
757.197327	213.000000
757.234619	220.000000
757.271912	209.000000
757.309082	217.000000
757.346375	210.000000
757.383667	217.000000
757.420837	215.000000
757.458130	219.000000
757.495422	209.000000
757.532593	218.000000
757.569885	205.000000
757.607117	208.000000
757.644348	216.000000
757.681580	227.000000
757.718811	201.000000
757.756042	214.000000
757.793335	220.000000
757.830505	219.000000
757.867798	211.000000
757.905029	213.000000
757.942200	214.000000
757.979492	215.000000
758.016724	218.000000
758.053894	216.000000
758.091187	238.000000
758.128418	213.000000
758.165588	216.000000
758.202820	228.000000
758.240112	220.000000
758.277283	225.000000
758.314514	222.000000
758.351685	217.000000
758.388916	232.000000
758.426147	225.000000
758.463379	230.000000
758.500610	224.000000
758.537842	223.000000
758.575012	227.000000
758.612244	217.000000
758.649475	234.000000
758.686646	214.000000
758.723877	224.000000
758.761108	228.000000
758.798279	221.000000
758.835510	224.000000
758.872742	230.000000
758.909851	226.000000
758.947083	223.000000
758.984253	228.000000
759.021484	227.000000
759.058716	233.000000
759.095886	229.000000
759.133057	228.000000
759.170288	226.000000
759.207458	222.000000
759.244690	237.000000
759.281860	235.000000
759.319031	228.000000
759.356262	223.000000
759.393433	223.000000
759.430603	227.000000
759.467773	228.000000
759.505005	232.000000
759.542175	232.000000
759.579346	224.000000
759.616516	224.000000
759.653687	229.000000
759.690918	225.000000
759.728027	226.000000
759.765259	233.000000
759.802429	228.000000
759.839539	228.000000
759.876770	236.000000
759.913940	241.000000
759.951111	227.000000
759.988281	226.000000
760.025452	220.000000
760.062561	227.000000
760.099792	236.000000
760.136963	232.000000
760.174072	225.000000
760.211243	222.000000
760.248413	225.000000
760.285583	225.000000
760.322754	239.000000
760.359863	241.000000
760.397034	233.000000
760.434204	231.000000
760.471375	233.000000
760.508545	227.000000
760.545715	227.000000
760.582825	228.000000
760.619995	234.000000
760.657166	229.000000
760.694275	238.000000
760.731445	233.000000
760.768555	233.000000
760.805664	239.000000
760.842834	233.000000
760.879944	235.000000
760.917114	237.000000
760.954285	238.000000
760.991394	226.000000
761.028564	244.000000
761.065674	237.000000
761.102783	229.000000
761.139954	247.000000
761.177124	245.000000
761.214172	251.000000
761.251343	238.000000
761.288452	244.000000
761.325562	246.000000
761.362732	239.000000
761.399841	239.000000
761.436951	247.000000
761.474121	235.000000
761.511169	242.000000
761.548340	246.000000
761.585449	246.000000
761.622559	246.000000
761.659668	247.000000
761.696838	249.000000
761.733887	246.000000
761.771057	242.000000
761.808167	245.000000
761.845276	257.000000
761.882385	267.000000
761.919434	249.000000
761.956604	272.000000
761.993713	247.000000
762.030762	263.000000
762.067871	251.000000
762.105042	256.000000
762.142090	264.000000
762.179199	259.000000
762.216309	261.000000
762.253418	275.000000
762.290527	260.000000
762.327637	264.000000
762.364685	256.000000
762.401794	264.000000
762.438904	260.000000
762.475952	248.000000
762.513062	253.000000
762.550110	252.000000
762.587219	273.000000
762.624329	264.000000
762.661377	265.000000
762.698486	265.000000
762.735596	272.000000
762.772644	253.000000
762.809753	254.000000
762.846863	263.000000
762.883911	268.000000
762.921021	264.000000
762.958069	261.000000
762.995117	269.000000
763.032227	271.000000
763.069336	265.000000
763.106323	262.000000
763.143433	261.000000
763.180481	270.000000
763.217590	267.000000
763.254639	261.000000
763.291687	258.000000
763.328735	275.000000
763.365845	263.000000
763.402893	263.000000
763.439941	272.000000
763.477051	274.000000
763.514038	274.000000
763.551147	270.000000
763.588196	269.000000
763.625244	270.000000
763.662292	274.000000
763.699402	279.000000
763.736389	278.000000
763.773499	287.000000
763.810486	280.000000
763.847534	281.000000
763.884644	282.000000
763.921631	279.000000
763.958679	292.000000
763.995728	287.000000
764.032776	289.000000
764.069824	277.000000
764.106873	287.000000
764.143860	293.000000
764.180969	281.000000
764.218018	291.000000
764.255005	281.000000
764.292053	286.000000
764.329102	298.000000
764.366089	298.000000
764.403137	298.000000
764.440125	292.000000
764.477173	291.000000
764.514221	292.000000
764.551208	300.000000
764.588257	285.000000
764.625305	293.000000
764.662292	295.000000
764.699341	302.000000
764.736389	288.000000
764.773376	315.000000
764.810425	300.000000
764.847473	309.000000
764.884399	306.000000
764.921448	313.000000
764.958435	313.000000
764.995483	300.000000
765.032532	317.000000
765.069458	300.000000
765.106506	301.000000
765.143555	300.000000
765.180481	299.000000
765.217529	322.000000
765.254578	301.000000
765.291504	313.000000
765.328552	308.000000
765.365540	301.000000
765.402527	325.000000
765.439575	319.000000
765.476501	308.000000
765.513550	305.000000
765.550537	310.000000
765.587463	320.000000
765.624512	304.000000
765.661499	294.000000
765.698486	319.000000
765.735474	306.000000
765.772461	314.000000
765.809448	320.000000
765.846436	320.000000
765.883423	323.000000
765.920410	318.000000
765.957397	311.000000
765.994385	325.000000
766.031311	330.000000
766.068359	315.000000
766.105286	322.000000
766.142273	324.000000
766.179260	322.000000
766.216187	317.000000
766.253174	315.000000
766.290161	328.000000
766.327148	327.000000
766.364136	330.000000
766.401123	344.000000
766.438049	328.000000
766.475037	338.000000
766.512024	335.000000
766.548950	354.000000
766.585937	341.000000
766.622864	338.000000
766.659790	340.000000
766.696777	324.000000
766.733704	349.000000
766.770691	342.000000
766.807678	355.000000
766.844604	349.000000
766.881531	356.000000
766.918518	357.000000
766.955444	362.000000
766.992432	353.000000
767.029358	360.000000
767.066284	362.000000
767.103271	361.000000
767.140198	387.000000
767.177124	382.000000
767.214050	371.000000
767.251038	362.000000
767.287964	363.000000
767.324890	360.000000
767.361816	369.000000
767.398743	373.000000
767.435730	371.000000
767.472595	376.000000
767.509583	382.000000
767.546509	374.000000
767.583374	383.000000
767.620361	361.000000
767.657288	374.000000
767.694214	377.000000
767.731140	380.000000
767.768066	384.000000
767.804993	382.000000
767.841919	376.000000
767.878845	382.000000
767.915710	383.000000
767.952698	393.000000
767.989563	385.000000
768.026489	396.000000
768.063416	380.000000
768.100281	386.000000
768.137207	397.000000
768.174133	398.000000
768.211060	398.000000
768.247986	401.000000
768.284912	398.000000
768.321777	390.000000
768.358704	391.000000
768.395630	396.000000
768.432495	398.000000
768.469421	403.000000
768.506348	405.000000
768.543152	414.000000
768.580078	414.000000
768.616943	412.000000
768.653870	415.000000
768.690796	414.000000
768.727661	402.000000
768.764587	408.000000
768.801453	407.000000
768.838318	423.000000
768.875244	420.000000
768.912109	427.000000
768.948975	410.000000
768.985901	421.000000
769.022766	412.000000
769.059631	420.000000
769.096558	417.000000
769.133362	420.000000
769.170288	430.000000
769.207214	423.000000
769.244019	427.000000
769.280945	424.000000
769.317810	438.000000
769.354675	438.000000
769.391541	453.000000
769.428406	439.000000
769.465271	443.000000
769.502136	436.000000
769.539062	443.000000
769.575867	442.000000
769.612732	443.000000
769.649597	452.000000
769.686462	458.000000
769.723328	448.000000
769.760193	447.000000
769.797058	454.000000
769.833923	460.000000
769.870728	453.000000
769.907593	448.000000
769.944519	453.000000
769.981323	461.000000
770.018188	472.000000
770.055054	463.000000
770.091858	461.000000
770.128723	475.000000
770.165588	479.000000
770.202393	468.000000
770.239258	476.000000
770.276062	471.000000
770.312927	483.000000
770.349792	474.000000
770.386597	478.000000
770.423462	486.000000
770.460327	501.000000
770.497131	483.000000
770.533997	484.000000
770.570862	490.000000
770.607605	488.000000
770.644470	487.000000
770.681335	491.000000
770.718140	497.000000
770.754944	491.000000
770.791809	483.000000
770.828613	483.000000
770.865479	477.000000
770.902222	508.000000
770.939087	489.000000
770.975952	487.000000
771.012695	500.000000
771.049561	515.000000
771.086365	496.000000
771.123169	500.000000
771.159973	504.000000
771.196838	508.000000
771.233582	509.000000
771.270447	506.000000
771.307251	511.000000
771.344055	505.000000
771.380859	510.000000
771.417664	504.000000
771.454468	519.000000
771.491272	515.000000
771.528076	510.000000
771.564880	509.000000
771.601685	523.000000
771.638428	521.000000
771.675293	529.000000
771.712097	515.000000
771.748840	534.000000
771.785645	516.000000
771.822449	522.000000
771.859253	530.000000
771.896057	533.000000
771.932861	546.000000
771.969604	538.000000
772.006409	522.000000
772.043213	537.000000
772.079956	538.000000
772.116760	535.000000
772.153503	552.000000
772.190308	554.000000
772.227112	540.000000
772.263855	543.000000
772.300659	549.000000
772.337463	566.000000
772.374207	550.000000
772.411011	551.000000
772.447754	553.000000
772.484497	579.000000
772.521301	556.000000
772.558105	561.000000
772.594849	562.000000
772.631592	574.000000
772.668396	571.000000
772.705139	569.000000
772.741882	565.000000
772.778625	581.000000
772.815430	598.000000
772.852173	599.000000
772.888916	606.000000
772.925720	604.000000
772.962463	612.000000
772.999207	605.000000
773.035950	613.000000
773.072754	621.000000
773.109436	603.000000
773.146240	611.000000
773.182922	611.000000
773.219727	614.000000
773.256470	620.000000
773.293152	614.000000
773.329956	628.000000
773.366699	625.000000
773.403381	613.000000
773.440186	614.000000
773.476929	621.000000
773.513611	632.000000
773.550354	647.000000
773.587158	635.000000
773.623840	629.000000
773.660583	624.000000
773.697327	641.000000
773.734009	654.000000
773.770813	658.000000
773.807495	635.000000
773.844238	644.000000
773.880981	664.000000
773.917664	655.000000
773.954407	661.000000
773.991150	663.000000
774.027832	659.000000
774.064575	655.000000
774.101318	663.000000
774.138000	662.000000
774.174744	662.000000
774.211487	684.000000
774.248108	671.000000
774.284851	674.000000
774.321594	680.000000
774.358276	673.000000
774.395020	690.000000
774.431702	707.000000
774.468384	694.000000
774.505127	691.000000
774.541809	686.000000
774.578491	691.000000
774.615234	699.000000
774.651917	697.000000
774.688599	714.000000
774.725342	715.000000
774.762024	712.000000
774.798706	700.000000
774.835449	699.000000
774.872070	728.000000
774.908813	731.000000
774.945496	732.000000
774.982178	725.000000
775.018860	711.000000
775.055542	706.000000
775.092224	721.000000
775.128967	745.000000
775.165588	755.000000
775.202271	740.000000
775.239014	731.000000
775.275635	737.000000
775.312317	736.000000
775.349060	764.000000
775.385681	761.000000
775.422363	755.000000
775.459045	754.000000
775.495667	741.000000
775.532410	764.000000
775.569092	765.000000
775.605713	774.000000
775.642395	768.000000
775.679016	767.000000
775.715698	756.000000
775.752380	763.000000
775.789001	744.000000
775.825684	764.000000
775.862366	773.000000
775.898987	783.000000
775.935669	769.000000
775.972351	782.000000
776.008972	784.000000
776.045654	785.000000
776.082336	781.000000
776.118958	783.000000
776.155640	779.000000
776.192322	779.000000
776.228882	775.000000
776.265564	795.000000
776.302185	785.000000
776.338867	808.000000
776.375488	784.000000
776.412109	794.000000
776.448792	785.000000
776.485413	810.000000
776.522034	814.000000
776.558716	795.000000
776.595337	813.000000
776.631958	792.000000
776.668579	787.000000
776.705261	806.000000
776.741882	806.000000
776.778503	807.000000
776.815186	801.000000
776.851746	807.000000
776.888367	793.000000
776.924988	807.000000
776.961609	795.000000
776.998291	803.000000
777.034851	802.000000
777.071472	815.000000
777.108154	802.000000
777.144714	810.000000
777.181335	826.000000
777.218018	811.000000
777.254578	828.000000
777.291199	833.000000
777.327759	843.000000
777.364380	853.000000
777.401062	862.000000
777.437622	887.000000
777.474243	872.000000
777.510864	876.000000
777.547424	867.000000
777.584045	887.000000
777.620667	875.000000
777.657227	879.000000
777.693848	885.000000
777.730469	913.000000
777.767029	894.000000
777.803650	886.000000
777.840271	878.000000
777.876831	869.000000
777.913452	890.000000
777.950012	876.000000
777.986633	875.000000
778.023193	866.000000
778.059753	878.000000
778.096375	858.000000
778.132996	895.000000
778.169556	878.000000
778.206116	893.000000
778.242737	889.000000
778.279297	886.000000
778.315857	878.000000
778.352478	900.000000
778.389038	901.000000
778.425598	904.000000
778.462219	921.000000
778.498718	917.000000
778.535339	931.000000
778.571838	921.000000
778.608459	928.000000
778.645020	901.000000
778.681580	925.000000
778.718140	919.000000
778.754761	907.000000
778.791260	920.000000
778.827881	929.000000
778.864441	923.000000
778.900940	943.000000
778.937561	950.000000
778.974121	945.000000
779.010620	936.000000
779.047241	936.000000
779.083801	949.000000
779.120300	970.000000
779.156860	991.000000
779.193359	998.000000
779.229980	999.000000
779.266541	1002.000000
779.303040	1003.000000
779.339600	1015.000000
779.376160	996.000000
779.412659	1013.000000
779.449219	998.000000
779.485779	1021.000000
779.522278	998.000000
779.558838	1014.000000
779.595398	991.000000
779.631897	1007.000000
779.668457	1010.000000
779.705017	1026.000000
779.741516	988.000000
779.778076	983.000000
779.814575	991.000000
779.851074	994.000000
779.887634	1022.000000
779.924133	1024.000000
779.960693	999.000000
779.997253	1018.000000
780.033691	1006.000000
780.070251	1022.000000
780.106812	1038.000000
780.143250	1055.000000
780.179810	1033.000000
780.216370	1032.000000
780.252808	1040.000000
780.289368	1044.000000
780.325867	1057.000000
780.362366	1063.000000
780.398865	1083.000000
780.435364	1078.000000
780.471863	1074.000000
780.508423	1065.000000
780.544861	1074.000000
780.581421	1097.000000
780.617920	1094.000000
780.654419	1076.000000
780.690918	1083.000000
780.727417	1074.000000
780.763916	1078.000000
780.800415	1090.000000
780.836914	1080.000000
780.873352	1112.000000
780.909912	1110.000000
780.946411	1066.000000
780.982849	1073.000000
781.019348	1056.000000
781.055786	1036.000000
781.092346	1023.000000
781.128845	1012.000000
781.165283	964.000000
781.201782	935.000000
781.238281	897.000000
781.274719	865.000000
781.311218	833.000000
781.347717	839.000000
781.384155	786.000000
781.420654	775.000000
781.457092	773.000000
781.493591	758.000000
781.530090	736.000000
781.566528	755.000000
781.602966	747.000000
781.639465	751.000000
781.675903	758.000000
781.712402	773.000000
781.748901	795.000000
781.785278	787.000000
781.821777	799.000000
781.858276	799.000000
781.894714	807.000000
781.931152	801.000000
781.967651	805.000000
782.004089	794.000000
782.040527	794.000000
782.076965	780.000000
782.113403	757.000000
782.149902	742.000000
782.186340	734.000000
782.222778	741.000000
782.259277	719.000000
782.295654	722.000000
782.332092	725.000000
782.368591	717.000000
782.404968	737.000000
782.441467	741.000000
782.477905	768.000000
782.514282	763.000000
782.550781	789.000000
782.587219	783.000000
782.623596	803.000000
782.660095	808.000000
782.696472	808.000000
782.732910	798.000000
782.769348	773.000000
782.805786	780.000000
782.842224	773.000000
782.878662	777.000000
782.915039	754.000000
782.951477	759.000000
782.987915	750.000000
783.024292	740.000000
783.060730	744.000000
783.097168	745.000000
783.133545	749.000000
783.169983	745.000000
783.206421	762.000000
783.242798	772.000000
783.279236	784.000000
783.315613	795.000000
783.352051	818.000000
783.388489	848.000000
783.424866	849.000000
783.461304	887.000000
783.497681	909.000000
783.534058	931.000000
783.570496	948.000000
783.606934	984.000000
783.643250	999.000000
783.679687	1044.000000
783.716125	1053.000000
783.752441	1095.000000
783.788879	1144.000000
783.825317	1155.000000
783.861633	1189.000000
783.898071	1189.000000
783.934448	1216.000000
783.970825	1245.000000
784.007263	1248.000000
784.043579	1281.000000
784.080017	1294.000000
784.116394	1279.000000
784.152710	1265.000000
784.189148	1272.000000
784.225525	1255.000000
784.261902	1269.000000
784.298279	1250.000000
784.334656	1254.000000
784.371033	1213.000000
784.407410	1224.000000
784.443787	1212.000000
784.480164	1220.000000
784.516541	1205.000000
784.552856	1205.000000
784.589233	1190.000000
784.625610	1196.000000
784.661987	1217.000000
784.698364	1246.000000
784.734741	1251.000000
784.771057	1245.000000
784.807434	1251.000000
784.843811	1251.000000
784.880127	1227.000000
784.916504	1279.000000
784.952881	1312.000000
784.989197	1317.000000
785.025574	1336.000000
785.061951	1333.000000
785.098267	1361.000000
785.134644	1384.000000
785.170959	1391.000000
785.207275	1410.000000
785.243652	1438.000000
785.279968	1408.000000
785.316345	1377.000000
785.352722	1357.000000
785.388977	1371.000000
785.425354	1339.000000
785.461731	1340.000000
785.498047	1316.000000
785.534363	1276.000000
785.570679	1241.000000
785.606995	1257.000000
785.643372	1233.000000
785.679687	1252.000000
785.716003	1239.000000
785.752380	1210.000000
785.788635	1208.000000
785.825012	1218.000000
785.861328	1222.000000
785.897644	1228.000000
785.933960	1288.000000
785.970337	1309.000000
786.006592	1328.000000
786.042908	1337.000000
786.079285	1351.000000
786.115540	1404.000000
786.151855	1440.000000
786.188171	1493.000000
786.224487	1502.000000
786.260803	1521.000000
786.297119	1520.000000
786.333435	1525.000000
786.369751	1523.000000
786.406006	1537.000000
786.442322	1511.000000
786.478638	1470.000000
786.514954	1445.000000
786.551270	1403.000000
786.587585	1401.000000
786.623840	1384.000000
786.660156	1375.000000
786.696472	1322.000000
786.732727	1276.000000
786.769043	1259.000000
786.805298	1265.000000
786.841614	1253.000000
786.877930	1305.000000
786.914124	1287.000000
786.950439	1302.000000
786.986755	1309.000000
787.023010	1330.000000
787.059326	1328.000000
787.095642	1360.000000
787.131836	1408.000000
787.168152	1432.000000
787.204468	1426.000000
787.240723	1442.000000
787.276978	1467.000000
787.313293	1473.000000
787.349548	1525.000000
787.385803	1519.000000
787.422058	1524.000000
787.458313	1499.000000
787.494629	1483.000000
787.530823	1476.000000
787.567139	1477.000000
787.603455	1475.000000
787.639648	1442.000000
787.675903	1446.000000
787.712219	1391.000000
787.748413	1383.000000
787.784729	1356.000000
787.820984	1354.000000
787.857178	1349.000000
787.893494	1357.000000
787.929749	1335.000000
787.965942	1353.000000
788.002258	1348.000000
788.038452	1354.000000
788.074707	1371.000000
788.110962	1362.000000
788.147217	1354.000000
788.183472	1356.000000
788.219727	1355.000000
788.255920	1378.000000
788.292175	1389.000000
788.328430	1438.000000
788.364624	1441.000000
788.400879	1438.000000
788.437134	1441.000000
788.473328	1412.000000
788.509583	1414.000000
788.545837	1434.000000
788.582031	1428.000000
788.618286	1450.000000
788.654480	1439.000000
788.690735	1429.000000
788.726990	1452.000000
788.763184	1447.000000
788.799377	1461.000000
788.835632	1460.000000
788.871826	1489.000000
788.908081	1470.000000
788.944336	1446.000000
788.980469	1458.000000
789.016724	1464.000000
789.052979	1467.000000
789.089111	1464.000000
789.125366	1458.000000
789.161621	1446.000000
789.197754	1452.000000
789.234009	1428.000000
789.270142	1423.000000
789.306396	1434.000000
789.342590	1430.000000
789.378784	1421.000000
789.414978	1396.000000
789.451233	1398.000000
789.487366	1383.000000
789.523621	1386.000000
789.559814	1411.000000
789.595947	1421.000000
789.632202	1423.000000
789.668335	1417.000000
789.704529	1397.000000
789.740784	1423.000000
789.776917	1459.000000
789.813110	1455.000000
789.849304	1482.000000
789.885498	1464.000000
789.921692	1467.000000
789.957886	1440.000000
789.994019	1459.000000
790.030212	1487.000000
790.066406	1516.000000
790.102539	1497.000000
790.138733	1481.000000
790.174927	1468.000000
790.211060	1449.000000
790.247253	1455.000000
790.283386	1468.000000
790.319580	1478.000000
790.355774	1418.000000
790.391907	1308.000000
790.428101	1125.000000
790.464294	918.000000
790.500427	803.000000
790.536621	784.000000
790.572754	852.000000
790.608887	950.000000
790.645081	1014.000000
790.681274	1059.000000
790.717346	1095.000000
790.753540	1130.000000
790.789734	1163.000000
790.825867	1171.000000
790.862000	1186.000000
790.898132	1209.000000
790.934265	1211.000000
790.970459	1255.000000
791.006592	1281.000000
791.042725	1316.000000
791.078918	1305.000000
791.114990	1308.000000
791.151184	1314.000000
791.187317	1345.000000
791.223389	1375.000000
791.259583	1374.000000
791.295715	1400.000000
791.331848	1391.000000
791.367981	1383.000000
791.404114	1370.000000
791.440247	1397.000000
791.476379	1428.000000
791.512451	1413.000000
791.548584	1429.000000
791.584778	1409.000000
791.620850	1421.000000
791.656982	1404.000000
791.693115	1415.000000
791.729187	1418.000000
791.765381	1457.000000
791.801514	1464.000000
791.837585	1438.000000
791.873718	1433.000000
791.909851	1446.000000
791.945923	1460.000000
791.982056	1465.000000
792.018188	1472.000000
792.054260	1473.000000
792.090393	1469.000000
792.126465	1462.000000
792.162598	1453.000000
792.198669	1462.000000
792.234741	1484.000000
792.270874	1472.000000
792.307007	1436.000000
792.343079	1406.000000
792.379150	1412.000000
792.415283	1400.000000
792.451355	1429.000000
792.487488	1421.000000
792.523560	1442.000000
792.559631	1432.000000
792.595764	1396.000000
792.631836	1400.000000
792.667908	1415.000000
792.703979	1404.000000
792.740051	1427.000000
792.776184	1410.000000
792.812256	1418.000000
792.848328	1409.000000
792.884399	1420.000000
792.920471	1408.000000
792.956543	1438.000000
792.992615	1446.000000
793.028748	1441.000000
793.064758	1414.000000
793.100830	1413.000000
793.136963	1408.000000
793.172974	1430.000000
793.209045	1433.000000
793.245178	1458.000000
793.281189	1435.000000
793.317261	1429.000000
793.353271	1406.000000
793.389404	1418.000000
793.425476	1417.000000
793.461487	1409.000000
793.497559	1405.000000
793.533630	1400.000000
793.569641	1358.000000
793.605713	1362.000000
793.641785	1358.000000
793.677795	1369.000000
793.713867	1390.000000
793.749878	1397.000000
793.785950	1398.000000
793.822021	1401.000000
793.858032	1373.000000
793.894104	1396.000000
793.930176	1401.000000
793.966187	1419.000000
794.002258	1424.000000
794.038269	1417.000000
794.074280	1395.000000
794.110352	1410.000000
794.146423	1409.000000
794.182373	1411.000000
794.218445	1420.000000
794.254517	1414.000000
794.290466	1415.000000
794.326538	1363.000000
794.362549	1360.000000
794.398560	1355.000000
794.434631	1369.000000
794.470581	1351.000000
794.506653	1327.000000
794.542664	1337.000000
794.578674	1299.000000
794.614685	1302.000000
794.650757	1314.000000
794.686707	1338.000000
794.722778	1319.000000
794.758789	1323.000000
794.794739	1333.000000
794.830811	1346.000000
794.866821	1362.000000
794.902771	1376.000000
794.938843	1369.000000
794.974792	1379.000000
795.010803	1392.000000
795.046814	1375.000000
795.082825	1347.000000
795.118835	1384.000000
795.154846	1364.000000
795.190796	1371.000000
795.226807	1359.000000
795.262817	1359.000000
795.298767	1331.000000
795.334778	1330.000000
795.370850	1311.000000
795.406799	1337.000000
795.442810	1327.000000
795.478821	1324.000000
795.514709	1301.000000
795.550720	1304.000000
795.586670	1270.000000
795.622681	1286.000000
795.658691	1310.000000
795.694641	1338.000000
795.730652	1320.000000
795.766663	1326.000000
795.802551	1327.000000
795.838562	1343.000000
795.874573	1343.000000
795.910522	1359.000000
795.946472	1330.000000
795.982483	1351.000000
796.018433	1331.000000
796.054382	1309.000000
796.090393	1305.000000
796.126282	1320.000000
796.162292	1302.000000
796.198242	1304.000000
796.234192	1303.000000
796.270203	1279.000000
796.306091	1263.000000
796.342041	1278.000000
796.378052	1291.000000
796.413940	1309.000000
796.449951	1324.000000
796.485901	1303.000000
796.521790	1260.000000
796.557800	1282.000000
796.593689	1301.000000
796.629639	1289.000000
796.665649	1303.000000
796.701599	1323.000000
796.737488	1306.000000
796.773437	1291.000000
796.809387	1297.000000
796.845337	1329.000000
796.881287	1365.000000
796.917175	1343.000000
796.953125	1321.000000
796.989075	1303.000000
797.024963	1287.000000
797.060913	1285.000000
797.096863	1310.000000
797.132751	1307.000000
797.168701	1310.000000
797.204590	1274.000000
797.240540	1262.000000
797.276489	1236.000000
797.312439	1252.000000
797.348328	1254.000000
797.384277	1284.000000
797.420166	1277.000000
797.456055	1258.000000
797.492004	1215.000000
797.527893	1220.000000
797.563843	1239.000000
797.599731	1259.000000
797.635620	1255.000000
797.671570	1267.000000
797.707520	1263.000000
797.743347	1246.000000
797.779297	1239.000000
797.815125	1258.000000
797.851074	1262.000000
797.887024	1283.000000
797.922913	1267.000000
797.958801	1252.000000
797.994690	1222.000000
798.030579	1230.000000
798.066467	1241.000000
798.102356	1257.000000
798.138245	1249.000000
798.174133	1236.000000
798.210083	1208.000000
798.245911	1208.000000
798.281799	1219.000000
798.317749	1221.000000
798.353577	1245.000000
798.389465	1253.000000
798.425293	1235.000000
798.461243	1217.000000
798.497131	1210.000000
798.532959	1209.000000
798.568848	1232.000000
798.604736	1228.000000
798.640564	1205.000000
798.676453	1192.000000
798.712402	1187.000000
798.748230	1177.000000
798.784119	1186.000000
798.820007	1200.000000
798.855835	1212.000000
798.891724	1212.000000
798.927551	1176.000000
798.963379	1165.000000
798.999268	1177.000000
799.035095	1183.000000
799.070984	1185.000000
799.106873	1181.000000
799.142700	1186.000000
799.178528	1180.000000
799.214417	1161.000000
799.250244	1184.000000
799.286133	1177.000000
799.321960	1195.000000
799.357788	1191.000000
799.393677	1167.000000
799.429504	1171.000000
799.465332	1170.000000
799.501221	1169.000000
799.537048	1185.000000
799.572876	1181.000000
799.608704	1176.000000
799.644531	1192.000000
799.680359	1174.000000
799.716248	1186.000000
799.752014	1183.000000
799.787903	1185.000000
799.823730	1185.000000
799.859558	1171.000000
799.895386	1157.000000
799.931213	1148.000000
799.967041	1137.000000
800.002869	1144.000000
800.038696	1161.000000
800.074463	1144.000000
800.110352	1157.000000
800.146179	1121.000000
800.181946	1118.000000
800.217773	1123.000000
800.253540	1124.000000
800.289429	1143.000000
800.325256	1136.000000
800.361023	1104.000000
800.396851	1103.000000
800.432678	1103.000000
800.468445	1107.000000
800.504272	1118.000000
800.540100	1102.000000
800.575867	1100.000000
800.611694	1102.000000
800.647461	1064.000000
800.683289	1076.000000
800.719116	1089.000000
800.754883	1088.000000
800.790649	1073.000000
800.826477	1068.000000
800.862244	1072.000000
800.898071	1044.000000
800.933838	1044.000000
800.969604	1049.000000
801.005432	1053.000000
801.041199	1049.000000
801.076965	1050.000000
801.112793	1019.000000
801.148560	1014.000000
801.184326	1019.000000
801.220154	1023.000000
801.255859	1025.000000
801.291687	1023.000000
801.327454	1004.000000
801.363281	997.000000
801.398987	982.000000
801.434814	992.000000
801.470520	1000.000000
801.506287	988.000000
801.542114	983.000000
801.577820	973.000000
801.613647	972.000000
801.649414	963.000000
801.685120	969.000000
801.720886	991.000000
801.756714	976.000000
801.792419	975.000000
801.828186	959.000000
801.863892	954.000000
801.899719	951.000000
801.935486	953.000000
801.971252	963.000000
802.006958	975.000000
802.042725	952.000000
802.078430	952.000000
802.114197	941.000000
802.149963	963.000000
802.185669	947.000000
802.221436	959.000000
802.257202	947.000000
802.292908	939.000000
802.328674	942.000000
802.364441	958.000000
802.400146	941.000000
802.435913	949.000000
802.471558	947.000000
802.507324	932.000000
802.543091	913.000000
802.578796	946.000000
802.614502	940.000000
802.650269	950.000000
802.685974	937.000000
802.721741	944.000000
802.757446	955.000000
802.793152	936.000000
802.828918	944.000000
802.864624	950.000000
802.900330	954.000000
802.936035	945.000000
802.971802	941.000000
803.007446	915.000000
803.043213	910.000000
803.078857	912.000000
803.114624	903.000000
803.150330	907.000000
803.185974	902.000000
803.221741	906.000000
803.257446	914.000000
803.293152	895.000000
803.328857	900.000000
803.364563	885.000000
803.400208	893.000000
803.435974	902.000000
803.471680	894.000000
803.507324	873.000000
803.543030	871.000000
803.578735	876.000000
803.614441	863.000000
803.650146	861.000000
803.685791	864.000000
803.721497	862.000000
803.757202	861.000000
803.792847	858.000000
803.828552	853.000000
803.864258	850.000000
803.899902	841.000000
803.935608	828.000000
803.971313	832.000000
804.006958	829.000000
804.042664	825.000000
804.078308	831.000000
804.113953	824.000000
804.149658	840.000000
804.185364	825.000000
804.221008	828.000000
804.256714	805.000000
804.292297	809.000000
804.328003	798.000000
804.363708	793.000000
804.399292	813.000000
804.434998	811.000000
804.470703	793.000000
804.506287	798.000000
804.541992	786.000000
804.577637	801.000000
804.613281	783.000000
804.648926	787.000000
804.684570	796.000000
804.720215	784.000000
804.755920	778.000000
804.791565	779.000000
804.827209	791.000000
804.862854	784.000000
804.898437	781.000000
804.934143	789.000000
804.969788	775.000000
805.005371	781.000000
805.041077	776.000000
805.076721	775.000000
805.112305	760.000000
805.147949	780.000000
805.183655	778.000000
805.219238	779.000000
805.254883	768.000000
805.290466	775.000000
805.326111	780.000000
805.361755	762.000000
805.397400	777.000000
805.432983	784.000000
805.468628	776.000000
805.504211	770.000000
805.539856	766.000000
805.575500	788.000000
805.611084	768.000000
805.646729	771.000000
805.682373	759.000000
805.717957	774.000000
805.753601	768.000000
805.789246	731.000000
805.824768	759.000000
805.860413	763.000000
805.895996	756.000000
805.931641	757.000000
805.967224	760.000000
806.002869	747.000000
806.038452	755.000000
806.074036	758.000000
806.109619	738.000000
806.145264	738.000000
806.180847	739.000000
806.216431	726.000000
806.252014	737.000000
806.287659	735.000000
806.323181	735.000000
806.358826	728.000000
806.394409	725.000000
806.429993	719.000000
806.465576	724.000000
806.501160	697.000000
806.536743	702.000000
806.572327	714.000000
806.607910	711.000000
806.643494	706.000000
806.679077	696.000000
806.714661	699.000000
806.750244	701.000000
806.785828	690.000000
806.821350	681.000000
806.856934	697.000000
806.892517	672.000000
806.928101	669.000000
806.963684	674.000000
806.999268	675.000000
807.034790	662.000000
807.070374	661.000000
807.105896	656.000000
807.141479	653.000000
807.177063	661.000000
807.212585	646.000000
807.248169	657.000000
807.283752	655.000000
807.319275	647.000000
807.354858	649.000000
807.390381	644.000000
807.425903	649.000000
807.461487	636.000000
807.497070	631.000000
807.532593	620.000000
807.568115	630.000000
807.603699	620.000000
807.639221	617.000000
807.674744	622.000000
807.710266	612.000000
807.745850	618.000000
807.781372	619.000000
807.816895	617.000000
807.852417	621.000000
807.888000	619.000000
807.923523	612.000000
807.959045	602.000000
807.994629	608.000000
808.030090	599.000000
808.065613	614.000000
808.101135	618.000000
808.136658	617.000000
808.172241	601.000000
808.207764	601.000000
808.243225	598.000000
808.278809	595.000000
808.314270	609.000000
808.349792	596.000000
808.385315	584.000000
808.420837	591.000000
808.456360	602.000000
808.491882	594.000000
808.527344	599.000000
808.562866	612.000000
808.598389	594.000000
808.633850	581.000000
808.669434	580.000000
808.704895	585.000000
808.740417	602.000000
808.775940	584.000000
808.811462	578.000000
808.846924	576.000000
808.882385	567.000000
808.917847	571.000000
808.953369	577.000000
808.988892	563.000000
809.024353	576.000000
809.059875	578.000000
809.095398	575.000000
809.130798	563.000000
809.166321	567.000000
809.201843	556.000000
809.237305	555.000000
809.272766	568.000000
809.308228	556.000000
809.343750	556.000000
809.379211	554.000000
809.414734	552.000000
809.450134	563.000000
809.485657	537.000000
809.521118	547.000000
809.556580	539.000000
809.592102	548.000000
809.627502	536.000000
809.663025	528.000000
809.698486	534.000000
809.733887	524.000000
809.769409	529.000000
809.804871	513.000000
809.840271	516.000000
809.875793	518.000000
809.911194	527.000000
809.946655	509.000000
809.982178	512.000000
810.017639	513.000000
810.053040	512.000000
810.088501	508.000000
810.123901	517.000000
810.159424	505.000000
810.194885	502.000000
810.230286	514.000000
810.265747	501.000000
810.301208	493.000000
810.336609	502.000000
810.372070	487.000000
810.407532	495.000000
810.442932	489.000000
810.478394	496.000000
810.513794	494.000000
810.549255	493.000000
810.584717	487.000000
810.620117	477.000000
810.655518	491.000000
810.690979	489.000000
810.726379	480.000000
810.761841	478.000000
810.797302	478.000000
810.832642	482.000000
810.868103	478.000000
810.903564	464.000000
810.938904	479.000000
810.974365	475.000000
811.009827	479.000000
811.045166	469.000000
811.080627	461.000000
811.115967	470.000000
811.151428	466.000000
811.186829	471.000000
811.222229	475.000000
811.257629	455.000000
811.293091	468.000000
811.328430	472.000000
811.363892	463.000000
811.399292	469.000000
811.434631	453.000000
811.470093	464.000000
811.505493	462.000000
811.540833	458.000000
811.576294	467.000000
811.611694	453.000000
811.647034	458.000000
811.682434	453.000000
811.717773	464.000000
811.753235	459.000000
811.788635	454.000000
811.823975	459.000000
811.859375	469.000000
811.894775	446.000000
811.930115	449.000000
811.965515	453.000000
812.000916	462.000000
812.036255	444.000000
812.071655	449.000000
812.106995	438.000000
812.142395	444.000000
812.177795	450.000000
812.213196	447.000000
812.248474	449.000000
812.283875	431.000000
812.319214	437.000000
812.354614	439.000000
812.390015	430.000000
812.425293	425.000000
812.460693	428.000000
812.496094	429.000000
812.531433	424.000000
812.566772	430.000000
812.602173	430.000000
812.637451	423.000000
812.672852	422.000000
812.708191	429.000000
812.743530	426.000000
812.778931	409.000000
812.814270	424.000000
812.849609	422.000000
812.884949	420.000000
812.920227	403.000000
812.955627	424.000000
812.990967	417.000000
813.026306	414.000000
813.061646	393.000000
813.096985	393.000000
813.132324	390.000000
813.167664	402.000000
813.203003	398.000000
813.238281	387.000000
813.273682	383.000000
813.308960	385.000000
813.344299	384.000000
813.379639	397.000000
813.414978	388.000000
813.450256	384.000000
813.485596	383.000000
813.520874	383.000000
813.556213	377.000000
813.591614	387.000000
813.626831	372.000000
813.662170	386.000000
813.697510	384.000000
813.732788	374.000000
813.768127	376.000000
813.803467	379.000000
813.838745	374.000000
813.874084	378.000000
813.909363	368.000000
813.944641	381.000000
813.979980	369.000000
814.015320	377.000000
814.050598	375.000000
814.085876	378.000000
814.121155	373.000000
814.156494	360.000000
814.191772	372.000000
814.227051	372.000000
814.262390	369.000000
814.297668	372.000000
814.332947	364.000000
814.368225	357.000000
814.403564	369.000000
814.438782	353.000000
814.474121	361.000000
814.509338	364.000000
814.544617	370.000000
814.579956	356.000000
814.615173	375.000000
814.650513	361.000000
814.685791	358.000000
814.721008	351.000000
814.756348	356.000000
814.791626	345.000000
814.826843	359.000000
814.862122	351.000000
814.897400	355.000000
814.932678	353.000000
814.967957	352.000000
815.003235	351.000000
815.038452	339.000000
815.073730	337.000000
815.108948	358.000000
815.144226	352.000000
815.179504	355.000000
815.214722	337.000000
815.250000	345.000000
815.285278	338.000000
815.320496	342.000000
815.355774	342.000000
815.391052	343.000000
815.426270	340.000000
815.461487	340.000000
815.496765	326.000000
815.531982	328.000000
815.567261	331.000000
815.602539	330.000000
815.637695	331.000000
815.672974	336.000000
815.708191	336.000000
815.743408	344.000000
815.778687	336.000000
815.813904	343.000000
815.849121	320.000000
815.884399	317.000000
815.919556	317.000000
815.954834	328.000000
815.990051	326.000000
816.025269	328.000000
816.060486	327.000000
816.095703	324.000000
816.130920	333.000000
816.166199	320.000000
816.201416	329.000000
816.236572	325.000000
816.271851	312.000000
816.307007	319.000000
816.342224	308.000000
816.377441	314.000000
816.412659	304.000000
816.447876	317.000000
816.483093	317.000000
816.518250	310.000000
816.553467	304.000000
816.588745	309.000000
816.623901	306.000000
816.659119	300.000000
816.694275	313.000000
816.729492	297.000000
816.764709	342.000000
816.799927	302.000000
816.835083	308.000000
816.870300	298.000000
816.905457	305.000000
816.940674	304.000000
816.975830	299.000000
817.010986	302.000000
817.046204	304.000000
817.081421	293.000000
817.116577	291.000000
817.151733	307.000000
817.186951	307.000000
817.222107	305.000000
817.257324	304.000000
817.292419	299.000000
817.327637	295.000000
817.362854	300.000000
817.398010	292.000000
817.433167	299.000000
817.468323	297.000000
817.503479	296.000000
817.538635	299.000000
817.573853	299.000000
817.608948	295.000000
817.644165	290.000000
817.679321	286.000000
817.714478	287.000000
817.749634	291.000000
817.784790	307.000000
817.819946	294.000000
817.855103	278.000000
817.890198	287.000000
817.925415	284.000000
817.960571	292.000000
817.995667	291.000000
818.030823	289.000000
818.066040	283.000000
818.101135	288.000000
818.136292	289.000000
818.171448	278.000000
818.206543	295.000000
818.241699	287.000000
818.276855	290.000000
818.311951	285.000000
818.347107	278.000000
818.382263	291.000000
818.417358	296.000000
818.452515	297.000000
818.487610	298.000000
818.522766	281.000000
818.557922	289.000000
818.593018	292.000000
818.628113	288.000000
818.663269	280.000000
818.698364	281.000000
818.733521	281.000000
818.768677	283.000000
818.803711	277.000000
818.838867	272.000000
818.874023	280.000000
818.909058	278.000000
818.944214	276.000000
818.979370	277.000000
819.014404	281.000000
819.049561	269.000000
819.084595	280.000000
819.119751	265.000000
819.154846	281.000000
819.189941	269.000000
819.225037	271.000000
819.260193	261.000000
819.295227	268.000000
819.330322	258.000000
819.365479	264.000000
819.400513	287.000000
819.435608	263.000000
819.470764	254.000000
819.505798	259.000000
819.540894	264.000000
819.575989	263.000000
819.611084	270.000000
819.646179	268.000000
819.681213	265.000000
819.716309	261.000000
819.751404	259.000000
819.786438	266.000000
819.821533	252.000000
819.856628	259.000000
819.891663	268.000000
819.926758	274.000000
819.961853	268.000000
819.996887	258.000000
820.031982	268.000000
820.067017	260.000000
820.102112	289.000000
820.137207	256.000000
820.172302	280.000000
820.207275	256.000000
820.242371	257.000000
820.277405	256.000000
820.312500	259.000000
820.347534	255.000000
820.382568	264.000000
820.417664	257.000000
820.452759	253.000000
820.487732	253.000000
820.522827	254.000000
820.557861	246.000000
820.592896	257.000000
820.627930	249.000000
820.662964	249.000000
820.698059	257.000000
820.733093	256.000000
820.768127	255.000000
820.803162	254.000000
820.838196	248.000000
820.873230	253.000000
820.908264	252.000000
820.943298	248.000000
820.978333	257.000000
821.013367	253.000000
821.048401	257.000000
821.083435	258.000000
821.118469	243.000000
821.153503	262.000000
821.188477	248.000000
821.223511	245.000000
821.258484	250.000000
821.293579	246.000000
821.328613	240.000000
821.363647	246.000000
821.398621	239.000000
821.433655	245.000000
821.468628	264.000000
821.503662	251.000000
821.538696	250.000000
821.573669	239.000000
821.608704	249.000000
821.643677	243.000000
821.678650	249.000000
821.713684	253.000000
821.748718	239.000000
821.783691	247.000000
821.818726	245.000000
821.853638	246.000000
821.888672	241.000000
821.923706	238.000000
821.958618	237.000000
821.993652	237.000000
822.028687	247.000000
822.063599	240.000000
822.098633	245.000000
822.133667	234.000000
822.168579	239.000000
822.203613	236.000000
822.238586	233.000000
822.273560	238.000000
822.308533	236.000000
822.343567	229.000000
822.378479	234.000000
822.413452	233.000000
822.448425	229.000000
822.483398	242.000000
822.518372	239.000000
822.553345	228.000000
822.588318	245.000000
822.623291	235.000000
822.658203	231.000000
822.693237	238.000000
822.728210	228.000000
822.763123	232.000000
822.798096	231.000000
822.833069	233.000000
822.867981	233.000000
822.902954	237.000000
822.937927	237.000000
822.972900	243.000000
823.007874	223.000000
823.042725	235.000000
823.077698	244.000000
823.112671	233.000000
823.147583	228.000000
823.182556	234.000000
823.217529	231.000000
823.252441	229.000000
823.287415	237.000000
823.322388	234.000000
823.357239	224.000000
823.392212	239.000000
823.427185	233.000000
823.462097	228.000000
823.497009	227.000000
823.531982	227.000000
823.566895	229.000000
823.601807	223.000000
823.636719	221.000000
823.671631	232.000000
823.706604	218.000000
823.741455	229.000000
823.776428	219.000000
823.811340	231.000000
823.846252	229.000000
823.881165	237.000000
823.916138	230.000000
823.950989	242.000000
823.985901	222.000000
824.020813	224.000000
824.055725	225.000000
824.090637	220.000000
824.125610	226.000000
824.160461	227.000000
824.195374	229.000000
824.230225	228.000000
824.265198	219.000000
824.300110	221.000000
824.334961	233.000000
824.369873	219.000000
824.404785	228.000000
824.439636	233.000000
824.474548	214.000000
824.509460	208.000000
824.544312	231.000000
824.579224	229.000000
824.614075	231.000000
824.648987	216.000000
824.683899	223.000000
824.718811	219.000000
824.753662	226.000000
824.788574	228.000000
824.823364	219.000000
824.858276	217.000000
824.893188	234.000000
824.928040	229.000000
824.962952	221.000000
824.997803	224.000000
825.032654	227.000000
825.067566	219.000000
825.102417	215.000000
825.137268	220.000000
825.172119	222.000000
825.206970	218.000000
825.241882	219.000000
825.276733	213.000000
825.311646	218.000000
825.346436	215.000000
825.381348	217.000000
825.416138	222.000000
825.450989	217.000000
825.485901	206.000000
825.520691	209.000000
825.555542	213.000000
825.590454	221.000000
825.625244	212.000000
825.660095	230.000000
825.695007	225.000000
825.729797	217.000000
825.764648	221.000000
825.799438	216.000000
825.834290	222.000000
825.869202	212.000000
825.903992	220.000000
825.938843	213.000000
825.973694	212.000000
826.008484	227.000000
826.043335	211.000000
826.078186	207.000000
826.112976	225.000000
826.147827	224.000000
826.182678	228.000000
826.217468	206.000000
826.252319	223.000000
826.287109	209.000000
826.321899	224.000000
826.356750	212.000000
826.391541	213.000000
826.426392	213.000000
826.461182	214.000000
826.495972	205.000000
826.530823	205.000000
826.565613	215.000000
826.600403	214.000000
826.635254	217.000000
826.670044	205.000000
826.704834	205.000000
826.739685	206.000000
826.774475	212.000000
826.809265	213.000000
826.844055	210.000000
826.878906	216.000000
826.913635	214.000000
826.948425	213.000000
826.983215	217.000000
827.018005	219.000000
827.052856	214.000000
827.087585	217.000000
827.122375	207.000000
827.157227	210.000000
827.191956	226.000000
827.226746	207.000000
827.261536	214.000000
827.296265	202.000000
827.331116	216.000000
827.365906	212.000000
827.400635	212.000000
827.435425	203.000000
827.470215	220.000000
827.504944	208.000000
827.539734	217.000000
827.574463	205.000000
827.609253	222.000000
827.644043	208.000000
827.678772	216.000000
827.713562	205.000000
827.748352	209.000000
827.783081	201.000000
827.817871	215.000000
827.852600	202.000000
827.887329	207.000000
827.922119	193.000000
827.956848	211.000000
827.991638	219.000000
828.026367	211.000000
828.061157	206.000000
828.095886	209.000000
828.130615	225.000000
828.165344	198.000000
828.200073	206.000000
828.234863	206.000000
828.269592	207.000000
828.304321	210.000000
828.339111	209.000000
828.373779	204.000000
828.408569	213.000000
828.443298	210.000000
828.477966	204.000000
828.512756	206.000000
828.547424	203.000000
828.582214	209.000000
828.616943	201.000000
828.651672	206.000000
828.686340	213.000000
828.721130	198.000000
828.755798	204.000000
828.790527	203.000000
828.825256	207.000000
828.859924	207.000000
828.894714	216.000000
828.929443	209.000000
828.964111	202.000000
828.998840	206.000000
829.033569	204.000000
829.068237	200.000000
829.102966	206.000000
829.137634	206.000000
829.172363	208.000000
829.207092	207.000000
829.241821	200.000000
829.276489	197.000000
829.311157	207.000000
829.345825	198.000000
829.380554	211.000000
829.415283	198.000000
829.449951	199.000000
829.484619	211.000000
829.519348	215.000000
829.554016	202.000000
829.588745	204.000000
829.623413	191.000000
829.658081	213.000000
829.692749	199.000000
829.727417	208.000000
829.762146	202.000000
829.796814	202.000000
829.831482	203.000000
829.866150	204.000000
829.900879	200.000000
829.935486	209.000000
829.970154	199.000000
830.004883	219.000000
830.039490	208.000000
830.074219	202.000000
830.108887	210.000000
830.143494	201.000000
830.178223	197.000000
830.212891	204.000000
830.247498	206.000000
830.282166	210.000000
830.316772	214.000000
830.351501	200.000000
830.386169	203.000000
830.420776	201.000000
830.455444	206.000000
830.490112	194.000000
830.524719	196.000000
830.559387	204.000000
830.594055	208.000000
830.628662	201.000000
830.663330	201.000000
830.697998	208.000000
830.732605	202.000000
830.767273	205.000000
830.801941	203.000000
830.836487	207.000000
830.871155	211.000000
830.905762	203.000000
830.940430	193.000000
830.975098	199.000000
831.009644	201.000000
831.044312	209.000000
831.078979	208.000000
831.113525	193.000000
831.148193	206.000000
831.182861	199.000000
831.217407	208.000000
831.252075	223.000000
831.286621	200.000000
831.321289	196.000000
831.355896	202.000000
831.390564	213.000000
831.425110	205.000000
831.459778	211.000000
831.494324	216.000000
831.528931	208.000000
831.563599	209.000000
831.598145	195.000000
831.632751	202.000000
831.667419	207.000000
831.701965	201.000000
831.736572	209.000000
831.771179	194.000000
831.805786	202.000000
831.840393	206.000000
831.874939	192.000000
831.909546	207.000000
831.944153	190.000000
831.978760	198.000000
832.013306	198.000000
832.047913	205.000000
832.082458	213.000000
832.117065	197.000000
832.151672	210.000000
832.186218	200.000000
832.220825	206.000000
832.255432	190.000000
832.289978	198.000000
832.324585	206.000000
832.359192	205.000000
832.393677	204.000000
832.428284	206.000000
832.462830	198.000000
832.497437	207.000000
832.531982	204.000000
832.566589	199.000000
832.601135	203.000000
832.635681	199.000000
832.670227	199.000000
832.704773	209.000000
832.739380	209.000000
832.773926	202.000000
832.808472	203.000000
832.843079	201.000000
832.877563	204.000000
832.912170	199.000000
832.946716	198.000000
832.981201	209.000000
833.015808	207.000000
833.050293	204.000000
833.084839	198.000000
833.119446	202.000000
833.153992	208.000000
833.188477	202.000000
833.223022	199.000000
833.257568	205.000000
833.292114	213.000000
833.326660	217.000000
833.361145	202.000000
833.395691	193.000000
833.430237	203.000000
833.464783	202.000000
833.499329	197.000000
833.533875	197.000000
833.568359	209.000000
833.602905	204.000000
833.637390	210.000000
833.671875	197.000000
833.706421	201.000000
833.740906	198.000000
833.775452	191.000000
833.809998	197.000000
833.844482	210.000000
833.879028	201.000000
833.913513	199.000000
833.947998	210.000000
833.982544	201.000000
834.017090	199.000000
834.051514	197.000000
834.086060	206.000000
834.120544	200.000000
834.155029	202.000000
834.189575	202.000000
834.223999	201.000000
834.258545	205.000000
834.293030	209.000000
834.327515	201.000000
834.362000	202.000000
834.396545	209.000000
834.430969	204.000000
834.465454	208.000000
834.500000	197.000000
834.534424	202.000000
834.568970	195.000000
834.603455	191.000000
834.637878	199.000000
834.672363	204.000000
834.706909	207.000000
834.741333	201.000000
834.775818	195.000000
834.810242	194.000000
834.844727	204.000000
834.879211	200.000000
834.913635	209.000000
834.948181	201.000000
834.982666	206.000000
835.017090	195.000000
835.051575	201.000000
835.086060	199.000000
835.120483	207.000000
835.154907	206.000000
835.189331	207.000000
835.223816	205.000000
835.258301	192.000000
835.292786	199.000000
835.327209	212.000000
835.361694	196.000000
835.396057	202.000000
835.430542	209.000000
835.465027	203.000000
835.499390	200.000000
835.533875	223.000000
835.568359	198.000000
835.602722	196.000000
835.637207	208.000000
835.671692	193.000000
835.706055	221.000000
835.740540	204.000000
835.774902	207.000000
835.809387	201.000000
835.843811	200.000000
835.878235	210.000000
835.912659	198.000000
835.947083	196.000000
835.981506	202.000000
836.015930	195.000000
836.050354	209.000000
836.084778	211.000000
836.119202	208.000000
836.153625	214.000000
836.187988	199.000000
836.222473	197.000000
836.256897	204.000000
836.291260	196.000000
836.325684	203.000000
836.360046	200.000000
836.394470	199.000000
836.428894	209.000000
836.463318	200.000000
836.497681	204.000000
836.532104	211.000000
836.566467	202.000000
836.600891	197.000000
836.635315	210.000000
836.669678	210.000000
836.704102	201.000000
836.738525	205.000000
836.772888	197.000000
836.807251	201.000000
836.841675	204.000000
836.876038	200.000000
836.910461	201.000000
836.944763	207.000000
836.979187	199.000000
837.013611	206.000000
837.047974	197.000000
837.082336	212.000000
837.116699	204.000000
837.151062	203.000000
837.185486	199.000000
837.219849	200.000000
837.254211	209.000000
837.288574	201.000000
837.322937	195.000000
837.357300	187.000000
837.391663	221.000000
837.426086	202.000000
837.460388	203.000000
837.494751	204.000000
837.529114	201.000000
837.563477	209.000000
837.597839	204.000000
837.632141	195.000000
837.666565	204.000000
837.700928	202.000000
837.735229	203.000000
837.769592	204.000000
837.803955	210.000000
837.838257	192.000000
837.872620	200.000000
837.906982	211.000000
837.941284	202.000000
837.975647	201.000000
838.010010	208.000000
838.044312	200.000000
838.078674	204.000000
838.112976	209.000000
838.147339	207.000000
838.181702	204.000000
838.216003	217.000000
838.250366	201.000000
838.284668	207.000000
838.318970	198.000000
838.353333	202.000000
838.387634	201.000000
838.421936	205.000000
838.456299	203.000000
838.490601	210.000000
838.524902	203.000000
838.559265	206.000000
838.593567	208.000000
838.627869	197.000000
838.662170	207.000000
838.696472	197.000000
838.730774	196.000000
838.765137	205.000000
838.799377	192.000000
838.833740	207.000000
838.868042	208.000000
838.902283	193.000000
838.936646	209.000000
838.970947	198.000000
839.005188	211.000000
839.039551	194.000000
839.073792	209.000000
839.108093	199.000000
839.142395	215.000000
839.176697	194.000000
839.210937	204.000000
839.245300	211.000000
839.279541	194.000000
839.313843	200.000000
839.348145	212.000000
839.382385	202.000000
839.416687	209.000000
839.450989	207.000000
839.485229	198.000000
839.519531	196.000000
839.553833	210.000000
839.588013	202.000000
839.622314	204.000000
839.656555	206.000000
839.690857	202.000000
839.725159	196.000000
839.759460	204.000000
839.793640	199.000000
839.827942	201.000000
839.862183	197.000000
839.896423	203.000000
839.930725	211.000000
839.964966	206.000000
839.999207	210.000000
840.033508	207.000000
840.067688	200.000000
840.101990	209.000000
840.136230	200.000000
840.170471	208.000000
840.204712	198.000000
840.238953	195.000000
840.273193	207.000000
840.307434	203.000000
840.341736	199.000000
840.375916	193.000000
840.410217	202.000000
840.444397	205.000000
840.478638	205.000000
840.512878	206.000000
840.547119	205.000000
840.581360	206.000000
840.615601	214.000000
840.649780	210.000000
840.684021	205.000000
840.718262	207.000000
840.752441	210.000000
840.786682	207.000000
840.820862	206.000000
840.855103	211.000000
840.889343	206.000000
840.923584	203.000000
840.957764	203.000000
840.992004	202.000000
841.026184	219.000000
841.060425	203.000000
841.094666	197.000000
841.128845	208.000000
841.163025	211.000000
841.197266	208.000000
841.231445	202.000000
841.265686	201.000000
841.299866	201.000000
841.334045	207.000000
841.368286	200.000000
841.402405	210.000000
841.436646	201.000000
841.470825	203.000000
841.505005	202.000000
841.539185	198.000000
841.573425	198.000000
841.607544	203.000000
841.641785	203.000000
841.675964	198.000000
841.710144	200.000000
841.744324	199.000000
841.778503	203.000000
841.812683	205.000000
841.846863	209.000000
841.881042	208.000000
841.915222	201.000000
841.949402	221.000000
841.983521	191.000000
842.017700	201.000000
842.051880	199.000000
842.086060	206.000000
842.120239	204.000000
842.154419	202.000000
842.188538	200.000000
842.222717	201.000000
842.256897	204.000000
842.291016	204.000000
842.325195	205.000000
842.359375	213.000000
842.393494	213.000000
842.427673	202.000000
842.461853	207.000000
842.495911	212.000000
842.530090	206.000000
842.564209	199.000000
842.598389	207.000000
842.632568	209.000000
842.666626	205.000000
842.700806	198.000000
842.734985	203.000000
842.769043	205.000000
842.803223	200.000000
842.837402	203.000000
842.871460	201.000000
842.905640	209.000000
842.939697	201.000000
842.973877	198.000000
843.007996	212.000000
843.042175	213.000000
843.076233	203.000000
843.110413	203.000000
843.144470	218.000000
843.178589	201.000000
843.212769	206.000000
843.246826	206.000000
843.280945	201.000000
843.315125	201.000000
843.349182	198.000000
843.383301	207.000000
843.417419	216.000000
843.451538	199.000000
843.485657	199.000000
843.519714	199.000000
843.553833	205.000000
843.587952	200.000000
843.622070	199.000000
843.656128	209.000000
843.690247	200.000000
843.724304	198.000000
843.758423	209.000000
843.792542	201.000000
843.826599	204.000000
843.860718	201.000000
843.894836	195.000000
843.928894	207.000000
843.963013	209.000000
843.997070	197.000000
844.031128	199.000000
844.065247	209.000000
844.099304	207.000000
844.133362	205.000000
844.167480	206.000000
844.201599	214.000000
844.235596	204.000000
844.269714	209.000000
844.303711	204.000000
844.337830	197.000000
844.371948	206.000000
844.405945	200.000000
844.440063	195.000000
844.474121	219.000000
844.508118	200.000000
844.542236	202.000000
844.576294	198.000000
844.610352	197.000000
844.644409	198.000000
844.678406	194.000000
844.712524	202.000000
844.746582	209.000000
844.780640	202.000000
844.814636	201.000000
844.848755	214.000000
844.882751	204.000000
844.916809	205.000000
844.950867	203.000000
844.984863	208.000000
845.018921	203.000000
845.052979	197.000000
845.086975	203.000000
845.121033	195.000000
845.155090	200.000000
845.189087	212.000000
845.223145	201.000000
845.257141	201.000000
845.291199	209.000000
845.325256	209.000000
845.359253	205.000000
845.393250	215.000000
845.427307	202.000000
845.461304	205.000000
845.495361	204.000000
845.529358	215.000000
845.563354	202.000000
845.597412	201.000000
845.631409	210.000000
845.665405	208.000000
845.699463	208.000000
845.733459	201.000000
845.767456	213.000000
845.801453	204.000000
845.835449	209.000000
845.869446	210.000000
845.903503	205.000000
845.937439	197.000000
845.971497	211.000000
846.005493	193.000000
846.039429	201.000000
846.073486	215.000000
846.107483	201.000000
846.141418	201.000000
846.175476	203.000000
846.209473	217.000000
846.243408	193.000000
846.277405	206.000000
846.311401	197.000000
846.345337	198.000000
846.379395	208.000000
846.413330	204.000000
846.447327	205.000000
846.481323	196.000000
846.515259	203.000000
846.549255	202.000000
846.583252	206.000000
846.617187	202.000000
846.651184	201.000000
846.685120	206.000000
846.719055	212.000000
846.753052	209.000000
846.786987	213.000000
846.820984	197.000000
846.854980	208.000000
846.888916	200.000000
846.922852	206.000000
846.956848	208.000000
846.990723	200.000000
847.024719	202.000000
847.058716	202.000000
847.092590	209.000000
847.126587	208.000000
847.160522	199.000000
847.194458	208.000000
847.228455	196.000000
847.262390	199.000000
847.296265	203.000000
847.330261	213.000000
847.364136	199.000000
847.398132	201.000000
847.432068	201.000000
847.466003	199.000000
847.499939	201.000000
847.533875	207.000000
847.567749	199.000000
847.601746	202.000000
847.635681	208.000000
847.669556	193.000000
847.703491	206.000000
847.737427	218.000000
847.771301	198.000000
847.805237	204.000000
847.839233	209.000000
847.873108	201.000000
847.907043	201.000000
847.940918	210.000000
847.974854	200.000000
848.008789	211.000000
848.042664	204.000000
848.076538	208.000000
848.110474	209.000000
848.144348	206.000000
848.178284	195.000000
848.212219	205.000000
848.246094	202.000000
848.279968	207.000000
848.313904	209.000000
848.347778	202.000000
848.381653	202.000000
848.415588	195.000000
848.449463	199.000000
848.483337	202.000000
848.517212	206.000000
848.551086	206.000000
848.585022	204.000000
848.618835	210.000000
848.652771	201.000000
848.686646	192.000000
848.720520	215.000000
848.754395	200.000000
848.788330	207.000000
848.822144	207.000000
848.856018	204.000000
848.889954	209.000000
848.923767	202.000000
848.957642	198.000000
848.991577	208.000000
849.025391	201.000000
849.059265	205.000000
849.093079	194.000000
849.126953	201.000000
849.160828	210.000000
849.194641	205.000000
849.228577	200.000000
849.262451	202.000000
849.296265	195.000000
849.330139	199.000000
849.364014	205.000000
849.397827	204.000000
849.431702	204.000000
849.465515	208.000000
849.499329	192.000000
849.533203	198.000000
849.567078	195.000000
849.600891	209.000000
849.634766	203.000000
849.668518	213.000000
849.702393	201.000000
849.736267	195.000000
849.770020	217.000000
849.803894	205.000000
849.837769	208.000000
849.871521	205.000000
849.905396	209.000000
849.939270	200.000000
849.973022	203.000000
850.006897	204.000000
850.040710	204.000000
850.074524	204.000000
850.108337	203.000000
850.142151	205.000000
850.175964	212.000000
850.209778	201.000000
850.243530	188.000000
850.277405	206.000000
850.311218	201.000000
850.344971	201.000000
850.378845	212.000000
850.412659	195.000000
850.446411	202.000000
850.480225	199.000000
850.514038	209.000000
850.547791	201.000000
850.581665	205.000000
850.615417	201.000000
850.649231	203.000000
850.683044	201.000000
850.716858	201.000000
850.750610	206.000000
850.784424	210.000000
850.818176	197.000000
850.851929	208.000000
850.885742	197.000000
850.919495	201.000000
850.953308	211.000000
850.987122	209.000000
851.020874	197.000000
851.054626	197.000000
851.088440	207.000000
851.122192	205.000000
851.156006	206.000000
851.189697	200.000000
851.223511	199.000000
851.257263	207.000000
851.291077	205.000000
851.324829	198.000000
851.358582	204.000000
851.392334	199.000000
851.426086	202.000000
851.459900	209.000000
851.493591	201.000000
851.527344	200.000000
851.561157	204.000000
851.594849	199.000000
851.628662	205.000000
851.662415	207.000000
851.696106	206.000000
851.729858	205.000000
851.763611	198.000000
851.797363	206.000000
851.831116	197.000000
851.864868	206.000000
851.898560	207.000000
851.932312	199.000000
851.966064	208.000000
851.999817	202.000000
852.033569	203.000000
852.067261	206.000000
852.101013	201.000000
852.134766	201.000000
852.168457	193.000000
852.202209	209.000000
852.235901	199.000000
852.269592	208.000000
852.303345	217.000000
852.337036	205.000000
852.370789	204.000000
852.404541	210.000000
852.438171	200.000000
852.471924	205.000000
852.505676	195.000000
852.539307	205.000000
852.573059	203.000000
852.606812	202.000000
852.640442	204.000000
852.674194	212.000000
852.707886	217.000000
852.741577	215.000000
852.775269	199.000000
852.809021	205.000000
852.842651	205.000000
852.876404	210.000000
852.910034	203.000000
852.943787	209.000000
852.977478	201.000000
853.011108	205.000000
853.044861	197.000000
853.078552	211.000000
853.112183	205.000000
853.145874	204.000000
853.179626	192.000000
853.213257	208.000000
853.246948	199.000000
853.280640	213.000000
853.314270	202.000000
853.347961	209.000000
853.381653	208.000000
853.415283	207.000000
853.448975	199.000000
853.482605	207.000000
853.516296	203.000000
853.549988	197.000000
853.583618	207.000000
853.617310	209.000000
853.651001	206.000000
853.684631	203.000000
853.718323	204.000000
853.751953	208.000000
853.785583	193.000000
853.819275	209.000000
853.852966	206.000000
853.886536	195.000000
853.920227	203.000000
853.953918	210.000000
853.987488	205.000000
854.021179	210.000000
854.054749	211.000000
854.088440	204.000000
854.122131	201.000000
854.155701	206.000000
854.189331	203.000000
854.223022	202.000000
854.256592	204.000000
854.290283	200.000000
854.323914	210.000000
854.357483	205.000000
854.391174	205.000000
854.424744	215.000000
854.458374	204.000000
854.492065	213.000000
854.525696	203.000000
854.559265	208.000000
854.592896	217.000000
854.626465	202.000000
854.660095	203.000000
854.693787	206.000000
854.727356	205.000000
854.760986	204.000000
854.794617	208.000000
854.828186	205.000000
854.861816	206.000000
854.895447	207.000000
854.929016	208.000000
854.962585	211.000000
854.996155	217.000000
855.029785	209.000000
855.063416	204.000000
855.097046	211.000000
855.130615	196.000000
855.164185	212.000000
855.197754	206.000000
855.231384	206.000000
855.264954	203.000000
855.298523	213.000000
855.332153	203.000000
855.365723	214.000000
855.399292	197.000000
855.432922	200.000000
855.466492	201.000000
855.500061	202.000000
855.533630	197.000000
855.567200	204.000000
855.600769	206.000000
855.634338	208.000000
855.667969	204.000000
855.701477	203.000000
855.735046	197.000000
855.768616	195.000000
855.802185	200.000000
855.835754	214.000000
855.869324	191.000000
855.902893	203.000000
855.936401	210.000000
855.969971	205.000000
856.003540	195.000000
856.037109	213.000000
856.070618	201.000000
856.104187	198.000000
856.137695	198.000000
856.171265	192.000000
856.204834	203.000000
856.238403	208.000000
856.271912	198.000000
856.305481	206.000000
856.338989	197.000000
856.372559	207.000000
856.406128	208.000000
856.439636	214.000000
856.473145	203.000000
856.506653	211.000000
856.540222	206.000000
856.573792	215.000000
856.607300	211.000000
856.640808	197.000000
856.674377	206.000000
856.707825	229.000000
856.741394	212.000000
856.774902	200.000000
856.808472	197.000000
856.841980	203.000000
856.875488	212.000000
856.908936	197.000000
856.942505	203.000000
856.976013	201.000000
857.009521	201.000000
857.043030	204.000000
857.076477	203.000000
857.110046	208.000000
857.143555	203.000000
857.177063	207.000000
857.210571	204.000000
857.244080	194.000000
857.277527	206.000000
857.311035	203.000000
857.344543	209.000000
857.378052	199.000000
857.411499	208.000000
857.445068	215.000000
857.478516	202.000000
857.512024	200.000000
857.545532	203.000000
857.578979	204.000000
857.612427	206.000000
857.645874	200.000000
857.679382	202.000000
857.712891	209.000000
857.746399	204.000000
857.779846	212.000000
857.813354	210.000000
857.846741	209.000000
857.880249	199.000000
857.913757	206.000000
857.947266	209.000000
857.980652	205.000000
858.014160	202.000000
858.047546	205.000000
858.081055	202.000000
858.114563	215.000000
858.147949	193.000000
858.181458	211.000000
858.214844	197.000000
858.248352	197.000000
858.281799	209.000000
858.315308	218.000000
858.348694	202.000000
858.382141	213.000000
858.415588	208.000000
858.449036	208.000000
858.482483	205.000000
858.515930	201.000000
858.549377	205.000000
858.582825	209.000000
858.616211	205.000000
858.649658	205.000000
858.683105	196.000000
858.716553	206.000000
858.750000	197.000000
858.783386	200.000000
858.816833	193.000000
858.850281	206.000000
858.883728	202.000000
858.917114	205.000000
858.950562	217.000000
858.983948	215.000000
859.017395	208.000000
859.050781	202.000000
859.084167	198.000000
859.117615	199.000000
859.151062	209.000000
859.184448	197.000000
859.217834	200.000000
859.251282	204.000000
859.284668	194.000000
859.318054	193.000000
859.351440	199.000000
859.384888	208.000000
859.418274	199.000000
859.451721	193.000000
859.485046	203.000000
859.518494	206.000000
859.551819	203.000000
859.585266	203.000000
859.618652	207.000000
859.652039	198.000000
859.685425	199.000000
859.718811	195.000000
859.752197	191.000000
859.785583	211.000000
859.819031	216.000000
859.852356	210.000000
859.885742	201.000000
859.919067	203.000000
859.952454	202.000000
859.985901	206.000000
860.019287	201.000000
860.052612	0.000000
860.085999	0.000000
860.119324	0.000000
860.152710	0.000000
860.186096	0.000000
860.219421	0.000000
860.252808	0.000000
860.286133	0.000000
860.319519	0.000000
860.352905	0.000000
860.386292	0.000000
860.419617	0.000000
860.452942	0.000000
860.486267	0.000000
860.519653	0.000000
860.553040	0.000000
860.586365	0.000000
860.619690	0.000000
860.653076	0.000000
860.686340	0.000000
860.719727	0.000000
860.753113	0.000000
860.786377	0.000000
860.819763	0.000000
860.853027	0.000000
860.886414	0.000000
860.919739	0.000000
860.953125	0.000000
860.986389	0.000000
861.019714	0.000000
861.053040	0.000000
861.086365	0.000000
861.119690	0.000000
861.153076	0.000000
861.186340	0.000000
861.219666	0.000000
861.252930	0.000000
861.286316	0.000000
861.319641	0.000000
861.352905	0.000000
861.386230	0.000000
861.419495	0.000000
861.452820	0.000000
861.486145	0.000000
861.519470	0.000000
861.552734	0.000000
861.586060	0.000000
861.619324	0.000000
861.652649	0.000000
861.685974	0.000000
861.719238	0.000000
861.752563	0.000000
861.785828	0.000000
861.819092	0.000000
861.852417	0.000000
861.885742	0.000000
861.918945	0.000000
861.952271	0.000000
861.985535	0.000000
862.018799	0.000000
862.052124	0.000000
862.085449	0.000000
862.118652	0.000000
862.151978	0.000000
862.185181	0.000000
862.218506	0.000000
862.251770	0.000000
862.285034	0.000000
862.318298	0.000000
862.351562	0.000000
862.384827	0.000000
862.418091	0.000000
862.451355	0.000000
862.484619	0.000000
862.517883	0.000000
862.551086	0.000000
862.584351	0.000000
862.617676	0.000000
862.650940	0.000000
862.684143	0.000000
862.717407	0.000000
862.750610	0.000000
862.783875	0.000000
862.817139	0.000000
862.850342	0.000000
862.883606	0.000000
862.916870	0.000000
862.950073	0.000000
862.983337	0.000000
863.016602	0.000000
863.049805	0.000000
863.083069	0.000000
863.116211	0.000000
863.149475	0.000000
863.182739	0.000000
863.216003	0.000000
863.249146	0.000000
863.282410	0.000000
863.315613	0.000000
863.348816	0.000000
863.382080	0.000000
863.415222	0.000000
863.448486	0.000000
863.481689	0.000000
863.514893	0.000000
863.548157	0.000000
863.581360	0.000000
863.614502	0.000000
863.647766	0.000000
863.680908	0.000000
863.714172	0.000000
863.747375	0.000000
863.780579	0.000000
863.813721	0.000000
863.846985	0.000000
863.880127	0.000000
863.913330	0.000000
863.946533	0.000000
863.979675	0.000000
864.012939	0.000000
