Model Number: SPM-001-M   
Serial Number: 10090201
Firmware Version: 004.17.6
Exposure Time: 500000.000000us
Data Taken on: 17-08-2020 11:34:49.689
Wavelength	Amplitude
733.770752	0.000000
733.808716	0.000000
733.846619	0.000000
733.884583	0.000000
733.922546	0.000000
733.960449	0.000000
733.998413	0.000000
734.036377	0.000000
734.074219	0.000000
734.112183	0.000000
734.150085	0.000000
734.188049	0.000000
734.226013	0.000000
734.263916	0.000000
734.301819	0.000000
734.339783	0.000000
734.377686	0.000000
734.415588	0.000000
734.453552	0.000000
734.491455	0.000000
734.529419	0.000000
734.567322	0.000000
734.605225	0.000000
734.643127	0.000000
734.681091	0.000000
734.718994	0.000000
734.756897	0.000000
734.794800	0.000000
734.832703	0.000000
734.870667	0.000000
734.908508	0.000000
734.946472	0.000000
734.984375	0.000000
735.022278	0.000000
735.060181	0.000000
735.098083	0.000000
735.135986	0.000000
735.173889	0.000000
735.211792	0.000000
735.249695	0.000000
735.287598	0.000000
735.325439	0.000000
735.363403	0.000000
735.401306	0.000000
735.439148	0.000000
735.477051	0.000000
735.515015	0.000000
735.552856	0.000000
735.590759	0.000000
735.628662	0.000000
735.666504	0.000000
735.704407	0.000000
735.742310	0.000000
735.780212	0.000000
735.818115	0.000000
735.856018	0.000000
735.893860	0.000000
735.931763	0.000000
735.969604	0.000000
736.007507	0.000000
736.045410	0.000000
736.083252	0.000000
736.121094	0.000000
736.158997	0.000000
736.196838	0.000000
736.234741	0.000000
736.272644	0.000000
736.310486	0.000000
736.348389	0.000000
736.386230	0.000000
736.424072	0.000000
736.461975	0.000000
736.499878	0.000000
736.537720	0.000000
736.575562	0.000000
736.613403	0.000000
736.651306	0.000000
736.689148	0.000000
736.726990	0.000000
736.764893	0.000000
736.802734	0.000000
736.840576	0.000000
736.878418	0.000000
736.916321	0.000000
736.954102	0.000000
736.992004	0.000000
737.029846	0.000000
737.067688	0.000000
737.105530	0.000000
737.143372	0.000000
737.181213	0.000000
737.219116	0.000000
737.256897	0.000000
737.294739	0.000000
737.332642	0.000000
737.370422	0.000000
737.408325	0.000000
737.446167	0.000000
737.483948	0.000000
737.521790	0.000000
737.559692	0.000000
737.597473	0.000000
737.635315	0.000000
737.673157	0.000000
737.710999	0.000000
737.748840	0.000000
737.786621	0.000000
737.824463	0.000000
737.862305	0.000000
737.900085	0.000000
737.937927	0.000000
737.975769	0.000000
738.013550	0.000000
738.051392	0.000000
738.089233	0.000000
738.127014	0.000000
738.164856	0.000000
738.202698	0.000000
738.240479	0.000000
738.278320	0.000000
738.316162	0.000000
738.353943	0.000000
738.391785	0.000000
738.429565	0.000000
738.467407	0.000000
738.505188	0.000000
738.542969	0.000000
738.580811	0.000000
738.618652	0.000000
738.656372	0.000000
738.694214	0.000000
738.732056	0.000000
738.769836	0.000000
738.807617	0.000000
738.845459	0.000000
738.883240	0.000000
738.921021	0.000000
738.958862	0.000000
738.996582	0.000000
739.034424	0.000000
739.072205	0.000000
739.109985	0.000000
739.147827	0.000000
739.185547	0.000000
739.223389	0.000000
739.261169	0.000000
739.298889	0.000000
739.336731	0.000000
739.374512	0.000000
739.412292	0.000000
739.450073	0.000000
739.487854	0.000000
739.525635	0.000000
739.563416	0.000000
739.601135	0.000000
739.638977	0.000000
739.676758	0.000000
739.714478	0.000000
739.752258	0.000000
739.790100	0.000000
739.827820	0.000000
739.865601	0.000000
739.903381	0.000000
739.941101	0.000000
739.978882	207.000000
740.016724	199.000000
740.054443	206.000000
740.092224	199.000000
740.130005	203.000000
740.167725	198.000000
740.205505	199.000000
740.243225	214.000000
740.281006	201.000000
740.318787	198.000000
740.356506	209.000000
740.394287	206.000000
740.432068	195.000000
740.469727	201.000000
740.507507	205.000000
740.545288	205.000000
740.583008	209.000000
740.620789	204.000000
740.658569	191.000000
740.696228	206.000000
740.734009	209.000000
740.771790	194.000000
740.809509	206.000000
740.847229	200.000000
740.884949	202.000000
740.922729	196.000000
740.960449	202.000000
740.998169	198.000000
741.035950	199.000000
741.073669	203.000000
741.111389	206.000000
741.149170	216.000000
741.186890	213.000000
741.224609	209.000000
741.262329	203.000000
741.300110	211.000000
741.337769	198.000000
741.375549	194.000000
741.413208	206.000000
741.450989	196.000000
741.488708	206.000000
741.526367	198.000000
741.564148	211.000000
741.601868	204.000000
741.639526	201.000000
741.677307	206.000000
741.715027	205.000000
741.752686	196.000000
741.790466	217.000000
741.828186	206.000000
741.865845	197.000000
741.903564	192.000000
741.941345	204.000000
741.979004	197.000000
742.016724	210.000000
742.054382	198.000000
742.092102	211.000000
742.129822	197.000000
742.167480	198.000000
742.205200	198.000000
742.242920	205.000000
742.280640	207.000000
742.318359	197.000000
742.356079	198.000000
742.393738	206.000000
742.431396	198.000000
742.469116	207.000000
742.506775	190.000000
742.544495	203.000000
742.582214	209.000000
742.619873	202.000000
742.657593	208.000000
742.695251	208.000000
742.732971	205.000000
742.770630	203.000000
742.808289	204.000000
742.846008	202.000000
742.883728	207.000000
742.921326	207.000000
742.959045	205.000000
742.996765	202.000000
743.034424	204.000000
743.072083	201.000000
743.109802	202.000000
743.147400	196.000000
743.185120	209.000000
743.222839	200.000000
743.260437	209.000000
743.298157	204.000000
743.335754	196.000000
743.373474	200.000000
743.411133	200.000000
743.448792	202.000000
743.486450	205.000000
743.524170	197.000000
743.561768	202.000000
743.599487	215.000000
743.637146	216.000000
743.674744	201.000000
743.712463	201.000000
743.750122	200.000000
743.787720	202.000000
743.825439	201.000000
743.863037	206.000000
743.900696	198.000000
743.938416	226.000000
743.976013	203.000000
744.013672	210.000000
744.051331	208.000000
744.088928	212.000000
744.126587	210.000000
744.164307	211.000000
744.201904	201.000000
744.239563	209.000000
744.277222	209.000000
744.314819	207.000000
744.352478	212.000000
744.390137	210.000000
744.427734	210.000000
744.465393	202.000000
744.502991	200.000000
744.540649	208.000000
744.578308	205.000000
744.615906	193.000000
744.653564	193.000000
744.691223	205.000000
744.728821	198.000000
744.766418	202.000000
744.804077	211.000000
744.841675	200.000000
744.879333	198.000000
744.916992	200.000000
744.954529	202.000000
744.992187	212.000000
745.029785	202.000000
745.067444	198.000000
745.105042	207.000000
745.142639	202.000000
745.180298	212.000000
745.217896	198.000000
745.255493	201.000000
745.293152	207.000000
745.330750	210.000000
745.368347	209.000000
745.405945	205.000000
745.443604	205.000000
745.481140	206.000000
745.518799	205.000000
745.556396	212.000000
745.593994	206.000000
745.631592	206.000000
745.669189	197.000000
745.706787	204.000000
745.744385	201.000000
745.781982	212.000000
745.819580	200.000000
745.857178	203.000000
745.894775	210.000000
745.932373	202.000000
745.969971	206.000000
746.007568	194.000000
746.045166	214.000000
746.082764	210.000000
746.120300	209.000000
746.157898	204.000000
746.195557	205.000000
746.233093	198.000000
746.270691	207.000000
746.308228	207.000000
746.345825	214.000000
746.383423	207.000000
746.420959	197.000000
746.458557	200.000000
746.496155	201.000000
746.533691	199.000000
746.571289	202.000000
746.608887	203.000000
746.646423	208.000000
746.684021	202.000000
746.721619	199.000000
746.759155	204.000000
746.796753	198.000000
746.834351	194.000000
746.871826	201.000000
746.909424	211.000000
746.946960	202.000000
746.984558	201.000000
747.022156	205.000000
747.059631	210.000000
747.097229	204.000000
747.134827	206.000000
747.172363	211.000000
747.209900	206.000000
747.247498	201.000000
747.285034	207.000000
747.322571	216.000000
747.360168	203.000000
747.397644	197.000000
747.435242	213.000000
747.472778	213.000000
747.510315	201.000000
747.547913	200.000000
747.585388	212.000000
747.622925	199.000000
747.660522	194.000000
747.697998	198.000000
747.735596	203.000000
747.773132	197.000000
747.810669	205.000000
747.848206	199.000000
747.885742	199.000000
747.923279	199.000000
747.960815	206.000000
747.998352	204.000000
748.035889	210.000000
748.073425	205.000000
748.110901	202.000000
748.148437	197.000000
748.185974	202.000000
748.223511	216.000000
748.261047	204.000000
748.298584	203.000000
748.336060	202.000000
748.373596	205.000000
748.411133	218.000000
748.448608	199.000000
748.486145	208.000000
748.523682	207.000000
748.561218	213.000000
748.598755	202.000000
748.636292	206.000000
748.673706	203.000000
748.711243	212.000000
748.748718	205.000000
748.786255	205.000000
748.823792	209.000000
748.861267	205.000000
748.898804	209.000000
748.936340	206.000000
748.973816	202.000000
749.011292	209.000000
749.048828	207.000000
749.086304	209.000000
749.123840	219.000000
749.161316	196.000000
749.198792	216.000000
749.236328	210.000000
749.273743	208.000000
749.311279	201.000000
749.348816	206.000000
749.386230	203.000000
749.423767	192.000000
749.461304	206.000000
749.498718	209.000000
749.536255	210.000000
749.573730	219.000000
749.611206	208.000000
749.648682	204.000000
749.686218	202.000000
749.723633	210.000000
749.761169	200.000000
749.798645	204.000000
749.836060	202.000000
749.873596	201.000000
749.911011	200.000000
749.948547	213.000000
749.986023	199.000000
750.023437	204.000000
750.060913	196.000000
750.098450	198.000000
750.135864	205.000000
750.173340	206.000000
750.210815	205.000000
750.248291	199.000000
750.285767	203.000000
750.323242	214.000000
750.360657	209.000000
750.398132	200.000000
750.435608	211.000000
750.473022	200.000000
750.510498	203.000000
750.547974	200.000000
750.585449	204.000000
750.622925	191.000000
750.660339	213.000000
750.697815	202.000000
750.735291	209.000000
750.772644	210.000000
750.810120	203.000000
750.847595	204.000000
750.885010	198.000000
750.922485	215.000000
750.959961	203.000000
750.997375	207.000000
751.034851	211.000000
751.072266	212.000000
751.109680	192.000000
751.147156	209.000000
751.184570	208.000000
751.221985	203.000000
751.259460	193.000000
751.296875	197.000000
751.334290	202.000000
751.371765	208.000000
751.409180	208.000000
751.446594	203.000000
751.484070	208.000000
751.521423	207.000000
751.558899	207.000000
751.596375	208.000000
751.633728	213.000000
751.671204	212.000000
751.708618	200.000000
751.746033	208.000000
751.783447	200.000000
751.820801	197.000000
751.858276	206.000000
751.895691	201.000000
751.933105	204.000000
751.970520	203.000000
752.007935	200.000000
752.045349	211.000000
752.082764	205.000000
752.120178	202.000000
752.157532	200.000000
752.195007	203.000000
752.232422	208.000000
752.269775	216.000000
752.307190	206.000000
752.344543	198.000000
752.382019	201.000000
752.419434	207.000000
752.456787	201.000000
752.494202	206.000000
752.531616	209.000000
752.568970	208.000000
752.606384	202.000000
752.643799	205.000000
752.681152	212.000000
752.718567	211.000000
752.755981	192.000000
752.793335	201.000000
752.830750	195.000000
752.868164	212.000000
752.905518	194.000000
752.942932	209.000000
752.980225	198.000000
753.017639	210.000000
753.055054	206.000000
753.092407	207.000000
753.129822	207.000000
753.167175	221.000000
753.204529	207.000000
753.241943	198.000000
753.279358	201.000000
753.316650	210.000000
753.354065	202.000000
753.391479	209.000000
753.428772	215.000000
753.466187	210.000000
753.503479	200.000000
753.540894	205.000000
753.578308	195.000000
753.615601	198.000000
753.653015	207.000000
753.690369	200.000000
753.727722	204.000000
753.765076	197.000000
753.802490	199.000000
753.839783	192.000000
753.877136	202.000000
753.914551	215.000000
753.951843	202.000000
753.989258	208.000000
754.026611	205.000000
754.063904	209.000000
754.101257	199.000000
754.138611	190.000000
754.175964	209.000000
754.213318	210.000000
754.250610	195.000000
754.288025	200.000000
754.325378	197.000000
754.362671	209.000000
754.400024	201.000000
754.437378	211.000000
754.474670	211.000000
754.512085	196.000000
754.549438	205.000000
754.586731	198.000000
754.624084	205.000000
754.661438	198.000000
754.698730	209.000000
754.736084	203.000000
754.773376	201.000000
754.810730	205.000000
754.848083	204.000000
754.885315	207.000000
754.922668	194.000000
754.960022	199.000000
754.997314	202.000000
755.034668	205.000000
755.072021	206.000000
755.109253	202.000000
755.146606	210.000000
755.183960	203.000000
755.221252	214.000000
755.258545	209.000000
755.295898	208.000000
755.333191	215.000000
755.370544	208.000000
755.407776	208.000000
755.445129	207.000000
755.482422	210.000000
755.519714	198.000000
755.557068	199.000000
755.594360	195.000000
755.631653	212.000000
755.668945	216.000000
755.706299	211.000000
755.743530	216.000000
755.780884	219.000000
755.818176	213.000000
755.855408	213.000000
755.892761	206.000000
755.930054	208.000000
755.967346	210.000000
756.004639	215.000000
756.041870	207.000000
756.079224	212.000000
756.116516	204.000000
756.153748	214.000000
756.191040	211.000000
756.228394	217.000000
756.265625	202.000000
756.302917	215.000000
756.340210	204.000000
756.377441	217.000000
756.414795	218.000000
756.452087	209.000000
756.489319	199.000000
756.526611	213.000000
756.563843	208.000000
756.601135	222.000000
756.638428	223.000000
756.675659	213.000000
756.712952	215.000000
756.750244	216.000000
756.787476	212.000000
756.824768	218.000000
756.862061	212.000000
756.899292	255.000000
756.936584	217.000000
756.973816	229.000000
757.011047	232.000000
757.048340	212.000000
757.085632	218.000000
757.122864	230.000000
757.160156	213.000000
757.197327	214.000000
757.234619	219.000000
757.271912	206.000000
757.309082	218.000000
757.346375	214.000000
757.383667	221.000000
757.420837	215.000000
757.458130	220.000000
757.495422	211.000000
757.532593	218.000000
757.569885	205.000000
757.607117	209.000000
757.644348	214.000000
757.681580	229.000000
757.718811	200.000000
757.756042	217.000000
757.793335	215.000000
757.830505	218.000000
757.867798	213.000000
757.905029	217.000000
757.942200	221.000000
757.979492	213.000000
758.016724	213.000000
758.053894	217.000000
758.091187	240.000000
758.128418	219.000000
758.165588	216.000000
758.202820	232.000000
758.240112	221.000000
758.277283	225.000000
758.314514	224.000000
758.351685	215.000000
758.388916	229.000000
758.426147	227.000000
758.463379	225.000000
758.500610	226.000000
758.537842	222.000000
758.575012	231.000000
758.612244	213.000000
758.649475	234.000000
758.686646	213.000000
758.723877	226.000000
758.761108	233.000000
758.798279	218.000000
758.835510	225.000000
758.872742	226.000000
758.909851	225.000000
758.947083	222.000000
758.984253	226.000000
759.021484	225.000000
759.058716	225.000000
759.095886	224.000000
759.133057	224.000000
759.170288	228.000000
759.207458	221.000000
759.244690	239.000000
759.281860	230.000000
759.319031	226.000000
759.356262	226.000000
759.393433	223.000000
759.430603	229.000000
759.467773	226.000000
759.505005	232.000000
759.542175	237.000000
759.579346	224.000000
759.616516	229.000000
759.653687	234.000000
759.690918	231.000000
759.728027	225.000000
759.765259	230.000000
759.802429	227.000000
759.839539	232.000000
759.876770	239.000000
759.913940	243.000000
759.951111	228.000000
759.988281	233.000000
760.025452	224.000000
760.062561	229.000000
760.099792	241.000000
760.136963	235.000000
760.174072	225.000000
760.211243	221.000000
760.248413	223.000000
760.285583	229.000000
760.322754	239.000000
760.359863	234.000000
760.397034	236.000000
760.434204	233.000000
760.471375	231.000000
760.508545	231.000000
760.545715	231.000000
760.582825	229.000000
760.619995	238.000000
760.657166	228.000000
760.694275	240.000000
760.731445	237.000000
760.768555	237.000000
760.805664	241.000000
760.842834	231.000000
760.879944	239.000000
760.917114	238.000000
760.954285	237.000000
760.991394	230.000000
761.028564	245.000000
761.065674	241.000000
761.102783	237.000000
761.139954	244.000000
761.177124	246.000000
761.214172	248.000000
761.251343	239.000000
761.288452	242.000000
761.325562	243.000000
761.362732	239.000000
761.399841	242.000000
761.436951	246.000000
761.474121	239.000000
761.511169	245.000000
761.548340	250.000000
761.585449	247.000000
761.622559	251.000000
761.659668	249.000000
761.696838	247.000000
761.733887	250.000000
761.771057	244.000000
761.808167	245.000000
761.845276	252.000000
761.882385	265.000000
761.919434	252.000000
761.956604	270.000000
761.993713	252.000000
762.030762	261.000000
762.067871	254.000000
762.105042	253.000000
762.142090	265.000000
762.179199	249.000000
762.216309	258.000000
762.253418	271.000000
762.290527	264.000000
762.327637	269.000000
762.364685	253.000000
762.401794	266.000000
762.438904	266.000000
762.475952	261.000000
762.513062	254.000000
762.550110	259.000000
762.587219	275.000000
762.624329	268.000000
762.661377	269.000000
762.698486	265.000000
762.735596	266.000000
762.772644	263.000000
762.809753	254.000000
762.846863	265.000000
762.883911	270.000000
762.921021	267.000000
762.958069	261.000000
762.995117	271.000000
763.032227	275.000000
763.069336	266.000000
763.106323	262.000000
763.143433	259.000000
763.180481	271.000000
763.217590	272.000000
763.254639	266.000000
763.291687	266.000000
763.328735	281.000000
763.365845	269.000000
763.402893	266.000000
763.439941	270.000000
763.477051	279.000000
763.514038	279.000000
763.551147	273.000000
763.588196	276.000000
763.625244	272.000000
763.662292	281.000000
763.699402	283.000000
763.736389	279.000000
763.773499	287.000000
763.810486	275.000000
763.847534	275.000000
763.884644	278.000000
763.921631	282.000000
763.958679	285.000000
763.995728	284.000000
764.032776	296.000000
764.069824	277.000000
764.106873	297.000000
764.143860	290.000000
764.180969	281.000000
764.218018	293.000000
764.255005	287.000000
764.292053	290.000000
764.329102	301.000000
764.366089	303.000000
764.403137	304.000000
764.440125	292.000000
764.477173	297.000000
764.514221	288.000000
764.551208	298.000000
764.588257	284.000000
764.625305	300.000000
764.662292	303.000000
764.699341	306.000000
764.736389	297.000000
764.773376	316.000000
764.810425	301.000000
764.847473	313.000000
764.884399	308.000000
764.921448	318.000000
764.958435	314.000000
764.995483	306.000000
765.032532	315.000000
765.069458	303.000000
765.106506	301.000000
765.143555	301.000000
765.180481	301.000000
765.217529	318.000000
765.254578	300.000000
765.291504	314.000000
765.328552	309.000000
765.365540	312.000000
765.402527	324.000000
765.439575	304.000000
765.476501	302.000000
765.513550	312.000000
765.550537	318.000000
765.587463	321.000000
765.624512	302.000000
765.661499	298.000000
765.698486	317.000000
765.735474	307.000000
765.772461	315.000000
765.809448	324.000000
765.846436	321.000000
765.883423	326.000000
765.920410	316.000000
765.957397	312.000000
765.994385	319.000000
766.031311	338.000000
766.068359	326.000000
766.105286	324.000000
766.142273	329.000000
766.179260	319.000000
766.216187	325.000000
766.253174	317.000000
766.290161	328.000000
766.327148	329.000000
766.364136	328.000000
766.401123	347.000000
766.438049	324.000000
766.475037	342.000000
766.512024	338.000000
766.548950	350.000000
766.585937	345.000000
766.622864	338.000000
766.659790	344.000000
766.696777	334.000000
766.733704	348.000000
766.770691	337.000000
766.807678	361.000000
766.844604	347.000000
766.881531	358.000000
766.918518	361.000000
766.955444	366.000000
766.992432	358.000000
767.029358	367.000000
767.066284	362.000000
767.103271	365.000000
767.140198	387.000000
767.177124	373.000000
767.214050	372.000000
767.251038	370.000000
767.287964	363.000000
767.324890	366.000000
767.361816	370.000000
767.398743	372.000000
767.435730	373.000000
767.472595	381.000000
767.509583	391.000000
767.546509	376.000000
767.583374	383.000000
767.620361	370.000000
767.657288	378.000000
767.694214	373.000000
767.731140	378.000000
767.768066	378.000000
767.804993	381.000000
767.841919	373.000000
767.878845	386.000000
767.915710	386.000000
767.952698	390.000000
767.989563	394.000000
768.026489	397.000000
768.063416	382.000000
768.100281	391.000000
768.137207	396.000000
768.174133	400.000000
768.211060	404.000000
768.247986	401.000000
768.284912	399.000000
768.321777	397.000000
768.358704	396.000000
768.395630	398.000000
768.432495	394.000000
768.469421	409.000000
768.506348	411.000000
768.543152	415.000000
768.580078	412.000000
768.616943	417.000000
768.653870	421.000000
768.690796	416.000000
768.727661	412.000000
768.764587	421.000000
768.801453	407.000000
768.838318	420.000000
768.875244	415.000000
768.912109	431.000000
768.948975	417.000000
768.985901	422.000000
769.022766	413.000000
769.059631	426.000000
769.096558	428.000000
769.133362	428.000000
769.170288	427.000000
769.207214	431.000000
769.244019	440.000000
769.280945	426.000000
769.317810	443.000000
769.354675	434.000000
769.391541	441.000000
769.428406	443.000000
769.465271	453.000000
769.502136	433.000000
769.539062	448.000000
769.575867	445.000000
769.612732	451.000000
769.649597	458.000000
769.686462	467.000000
769.723328	458.000000
769.760193	454.000000
769.797058	461.000000
769.833923	468.000000
769.870728	458.000000
769.907593	463.000000
769.944519	469.000000
769.981323	470.000000
770.018188	471.000000
770.055054	463.000000
770.091858	469.000000
770.128723	481.000000
770.165588	478.000000
770.202393	471.000000
770.239258	490.000000
770.276062	479.000000
770.312927	478.000000
770.349792	480.000000
770.386597	480.000000
770.423462	487.000000
770.460327	504.000000
770.497131	481.000000
770.533997	481.000000
770.570862	495.000000
770.607605	501.000000
770.644470	487.000000
770.681335	504.000000
770.718140	501.000000
770.754944	490.000000
770.791809	484.000000
770.828613	485.000000
770.865479	494.000000
770.902222	505.000000
770.939087	496.000000
770.975952	487.000000
771.012695	490.000000
771.049561	512.000000
771.086365	500.000000
771.123169	495.000000
771.159973	501.000000
771.196838	504.000000
771.233582	502.000000
771.270447	500.000000
771.307251	512.000000
771.344055	514.000000
771.380859	508.000000
771.417664	517.000000
771.454468	520.000000
771.491272	521.000000
771.528076	514.000000
771.564880	519.000000
771.601685	517.000000
771.638428	509.000000
771.675293	527.000000
771.712097	512.000000
771.748840	536.000000
771.785645	519.000000
771.822449	532.000000
771.859253	529.000000
771.896057	545.000000
771.932861	561.000000
771.969604	542.000000
772.006409	536.000000
772.043213	558.000000
772.079956	552.000000
772.116760	549.000000
772.153503	551.000000
772.190308	565.000000
772.227112	552.000000
772.263855	548.000000
772.300659	551.000000
772.337463	566.000000
772.374207	562.000000
772.411011	555.000000
772.447754	557.000000
772.484497	570.000000
772.521301	561.000000
772.558105	564.000000
772.594849	565.000000
772.631592	583.000000
772.668396	573.000000
772.705139	574.000000
772.741882	575.000000
772.778625	596.000000
772.815430	597.000000
772.852173	599.000000
772.888916	609.000000
772.925720	607.000000
772.962463	617.000000
772.999207	612.000000
773.035950	623.000000
773.072754	619.000000
773.109436	622.000000
773.146240	611.000000
773.182922	614.000000
773.219727	623.000000
773.256470	624.000000
773.293152	615.000000
773.329956	628.000000
773.366699	635.000000
773.403381	626.000000
773.440186	626.000000
773.476929	635.000000
773.513611	630.000000
773.550354	653.000000
773.587158	646.000000
773.623840	629.000000
773.660583	636.000000
773.697327	642.000000
773.734009	647.000000
773.770813	647.000000
773.807495	643.000000
773.844238	637.000000
773.880981	649.000000
773.917664	656.000000
773.954407	667.000000
773.991150	672.000000
774.027832	671.000000
774.064575	657.000000
774.101318	666.000000
774.138000	670.000000
774.174744	673.000000
774.211487	699.000000
774.248108	674.000000
774.284851	681.000000
774.321594	690.000000
774.358276	678.000000
774.395020	696.000000
774.431702	714.000000
774.468384	709.000000
774.505127	692.000000
774.541809	704.000000
774.578491	703.000000
774.615234	704.000000
774.651917	706.000000
774.688599	718.000000
774.725342	729.000000
774.762024	719.000000
774.798706	707.000000
774.835449	705.000000
774.872070	731.000000
774.908813	740.000000
774.945496	736.000000
774.982178	733.000000
775.018860	717.000000
775.055542	718.000000
775.092224	728.000000
775.128967	761.000000
775.165588	749.000000
775.202271	737.000000
775.239014	740.000000
775.275635	733.000000
775.312317	746.000000
775.349060	758.000000
775.385681	762.000000
775.422363	771.000000
775.459045	760.000000
775.495667	751.000000
775.532410	756.000000
775.569092	776.000000
775.605713	775.000000
775.642395	769.000000
775.679016	766.000000
775.715698	768.000000
775.752380	757.000000
775.789001	753.000000
775.825684	766.000000
775.862366	777.000000
775.898987	790.000000
775.935669	768.000000
775.972351	786.000000
776.008972	794.000000
776.045654	801.000000
776.082336	799.000000
776.118958	787.000000
776.155640	794.000000
776.192322	788.000000
776.228882	786.000000
776.265564	802.000000
776.302185	802.000000
776.338867	815.000000
776.375488	801.000000
776.412109	800.000000
776.448792	806.000000
776.485413	831.000000
776.522034	809.000000
776.558716	808.000000
776.595337	804.000000
776.631958	809.000000
776.668579	788.000000
776.705261	811.000000
776.741882	810.000000
776.778503	818.000000
776.815186	803.000000
776.851746	813.000000
776.888367	796.000000
776.924988	812.000000
776.961609	799.000000
776.998291	818.000000
777.034851	799.000000
777.071472	823.000000
777.108154	800.000000
777.144714	823.000000
777.181335	824.000000
777.218018	823.000000
777.254578	839.000000
777.291199	829.000000
777.327759	844.000000
777.364380	857.000000
777.401062	867.000000
777.437622	881.000000
777.474243	872.000000
777.510864	891.000000
777.547424	877.000000
777.584045	868.000000
777.620667	882.000000
777.657227	896.000000
777.693848	875.000000
777.730469	907.000000
777.767029	901.000000
777.803650	902.000000
777.840271	878.000000
777.876831	880.000000
777.913452	900.000000
777.950012	883.000000
777.986633	883.000000
778.023193	894.000000
778.059753	874.000000
778.096375	883.000000
778.132996	900.000000
778.169556	884.000000
778.206116	891.000000
778.242737	905.000000
778.279297	901.000000
778.315857	892.000000
778.352478	904.000000
778.389038	926.000000
778.425598	921.000000
778.462219	938.000000
778.498718	929.000000
778.535339	936.000000
778.571838	928.000000
778.608459	933.000000
778.645020	929.000000
778.681580	930.000000
778.718140	938.000000
778.754761	922.000000
778.791260	929.000000
778.827881	944.000000
778.864441	939.000000
778.900940	942.000000
778.937561	965.000000
778.974121	955.000000
779.010620	933.000000
779.047241	957.000000
779.083801	976.000000
779.120300	977.000000
779.156860	1001.000000
779.193359	995.000000
779.229980	1006.000000
779.266541	1015.000000
779.303040	1003.000000
779.339600	1005.000000
779.376160	1007.000000
779.412659	1016.000000
779.449219	1018.000000
779.485779	1017.000000
779.522278	1016.000000
779.558838	1006.000000
779.595398	1020.000000
779.631897	1014.000000
779.668457	1015.000000
779.705017	1025.000000
779.741516	1003.000000
779.778076	997.000000
779.814575	992.000000
779.851074	1020.000000
779.887634	1027.000000
779.924133	1036.000000
779.960693	1007.000000
779.997253	1021.000000
780.033691	1017.000000
780.070251	1031.000000
780.106812	1050.000000
780.143250	1048.000000
780.179810	1048.000000
780.216370	1056.000000
780.252808	1037.000000
780.289368	1056.000000
780.325867	1058.000000
780.362366	1056.000000
780.398865	1090.000000
780.435364	1081.000000
780.471863	1069.000000
780.508423	1079.000000
780.544861	1095.000000
780.581421	1093.000000
780.617920	1077.000000
780.654419	1090.000000
780.690918	1089.000000
780.727417	1092.000000
780.763916	1097.000000
780.800415	1124.000000
780.836914	1105.000000
780.873352	1125.000000
780.909912	1121.000000
780.946411	1100.000000
780.982849	1117.000000
781.019348	1117.000000
781.055786	1104.000000
781.092346	1111.000000
781.128845	1121.000000
781.165283	1110.000000
781.201782	1089.000000
781.238281	1084.000000
781.274719	1084.000000
781.311218	1068.000000
781.347717	1060.000000
781.384155	1020.000000
781.420654	987.000000
781.457092	970.000000
781.493591	939.000000
781.530090	897.000000
781.566528	860.000000
781.602966	824.000000
781.639465	797.000000
781.675903	785.000000
781.712402	763.000000
781.748901	735.000000
781.785278	742.000000
781.821777	739.000000
781.858276	741.000000
781.894714	759.000000
781.931152	767.000000
781.967651	789.000000
782.004089	780.000000
782.040527	809.000000
782.076965	827.000000
782.113403	842.000000
782.149902	868.000000
782.186340	890.000000
782.222778	921.000000
782.259277	935.000000
782.295654	963.000000
782.332092	983.000000
782.368591	1001.000000
782.404968	1014.000000
782.441467	1029.000000
782.477905	1032.000000
782.514282	1013.000000
782.550781	1010.000000
782.587219	953.000000
782.623596	935.000000
782.660095	917.000000
782.696472	879.000000
782.732910	849.000000
782.769348	828.000000
782.805786	821.000000
782.842224	808.000000
782.878662	792.000000
782.915039	802.000000
782.951477	799.000000
782.987915	816.000000
783.024292	815.000000
783.060730	847.000000
783.097168	853.000000
783.133545	865.000000
783.169983	880.000000
783.206421	898.000000
783.242798	902.000000
783.279236	926.000000
783.315613	937.000000
783.352051	976.000000
783.388489	999.000000
783.424866	1018.000000
783.461304	1055.000000
783.497681	1083.000000
783.534058	1101.000000
783.570496	1120.000000
783.606934	1130.000000
783.643250	1159.000000
783.679687	1167.000000
783.716125	1168.000000
783.752441	1195.000000
783.788879	1226.000000
783.825317	1249.000000
783.861633	1252.000000
783.898071	1252.000000
783.934448	1260.000000
783.970825	1274.000000
784.007263	1287.000000
784.043579	1299.000000
784.080017	1313.000000
784.116394	1288.000000
784.152710	1294.000000
784.189148	1290.000000
784.225525	1278.000000
784.261902	1303.000000
784.298279	1272.000000
784.334656	1270.000000
784.371033	1242.000000
784.407410	1243.000000
784.443787	1220.000000
784.480164	1235.000000
784.516541	1232.000000
784.552856	1231.000000
784.589233	1216.000000
784.625610	1203.000000
784.661987	1239.000000
784.698364	1244.000000
784.734741	1257.000000
784.771057	1271.000000
784.807434	1264.000000
784.843811	1263.000000
784.880127	1231.000000
784.916504	1305.000000
784.952881	1320.000000
784.989197	1331.000000
785.025574	1352.000000
785.061951	1358.000000
785.098267	1379.000000
785.134644	1382.000000
785.170959	1405.000000
785.207275	1443.000000
785.243652	1448.000000
785.279968	1433.000000
785.316345	1390.000000
785.352722	1371.000000
785.388977	1386.000000
785.425354	1370.000000
785.461731	1361.000000
785.498047	1331.000000
785.534363	1302.000000
785.570679	1249.000000
785.606995	1255.000000
785.643372	1258.000000
785.679687	1270.000000
785.716003	1251.000000
785.752380	1230.000000
785.788635	1215.000000
785.825012	1236.000000
785.861328	1241.000000
785.897644	1266.000000
785.933960	1300.000000
785.970337	1324.000000
786.006592	1339.000000
786.042908	1347.000000
786.079285	1381.000000
786.115540	1425.000000
786.151855	1487.000000
786.188171	1503.000000
786.224487	1531.000000
786.260803	1519.000000
786.297119	1527.000000
786.333435	1534.000000
786.369751	1537.000000
786.406006	1550.000000
786.442322	1514.000000
786.478638	1489.000000
786.514954	1454.000000
786.551270	1399.000000
786.587585	1399.000000
786.623840	1366.000000
786.660156	1375.000000
786.696472	1339.000000
786.732727	1292.000000
786.769043	1281.000000
786.805298	1277.000000
786.841614	1274.000000
786.877930	1313.000000
786.914124	1298.000000
786.950439	1314.000000
786.986755	1326.000000
787.023010	1335.000000
787.059326	1339.000000
787.095642	1378.000000
787.131836	1436.000000
787.168152	1419.000000
787.204468	1441.000000
787.240723	1456.000000
787.276978	1457.000000
787.313293	1513.000000
787.349548	1506.000000
787.385803	1535.000000
787.422058	1547.000000
787.458313	1518.000000
787.494629	1491.000000
787.530823	1485.000000
787.567139	1490.000000
787.603455	1457.000000
787.639648	1447.000000
787.675903	1431.000000
787.712219	1415.000000
787.748413	1387.000000
787.784729	1380.000000
787.820984	1371.000000
787.857178	1363.000000
787.893494	1369.000000
787.929749	1347.000000
787.965942	1353.000000
788.002258	1353.000000
788.038452	1359.000000
788.074707	1377.000000
788.110962	1385.000000
788.147217	1373.000000
788.183472	1378.000000
788.219727	1366.000000
788.255920	1396.000000
788.292175	1427.000000
788.328430	1445.000000
788.364624	1431.000000
788.400879	1433.000000
788.437134	1422.000000
788.473328	1417.000000
788.509583	1435.000000
788.545837	1445.000000
788.582031	1467.000000
788.618286	1449.000000
788.654480	1446.000000
788.690735	1450.000000
788.726990	1464.000000
788.763184	1465.000000
788.799377	1475.000000
788.835632	1473.000000
788.871826	1490.000000
788.908081	1476.000000
788.944336	1467.000000
788.980469	1473.000000
789.016724	1483.000000
789.052979	1498.000000
789.089111	1487.000000
789.125366	1475.000000
789.161621	1457.000000
789.197754	1447.000000
789.234009	1451.000000
789.270142	1464.000000
789.306396	1430.000000
789.342590	1439.000000
789.378784	1419.000000
789.414978	1404.000000
789.451233	1384.000000
789.487366	1402.000000
789.523621	1414.000000
789.559814	1414.000000
789.595947	1431.000000
789.632202	1421.000000
789.668335	1405.000000
789.704529	1422.000000
789.740784	1449.000000
789.776917	1447.000000
789.813110	1473.000000
789.849304	1491.000000
789.885498	1475.000000
789.921692	1460.000000
789.957886	1471.000000
789.994019	1471.000000
790.030212	1501.000000
790.066406	1506.000000
790.102539	1507.000000
790.138733	1486.000000
790.174927	1472.000000
790.211060	1465.000000
790.247253	1467.000000
790.283386	1496.000000
790.319580	1494.000000
790.355774	1436.000000
790.391907	1313.000000
790.428101	1146.000000
790.464294	937.000000
790.500427	802.000000
790.536621	769.000000
790.572754	840.000000
790.608887	936.000000
790.645081	1008.000000
790.681274	1060.000000
790.717346	1108.000000
790.753540	1138.000000
790.789734	1149.000000
790.825867	1157.000000
790.862000	1169.000000
790.898132	1208.000000
790.934265	1218.000000
790.970459	1257.000000
791.006592	1290.000000
791.042725	1308.000000
791.078918	1302.000000
791.114990	1306.000000
791.151184	1312.000000
791.187317	1329.000000
791.223389	1349.000000
791.259583	1385.000000
791.295715	1387.000000
791.331848	1380.000000
791.367981	1371.000000
791.404114	1369.000000
791.440247	1397.000000
791.476379	1417.000000
791.512451	1427.000000
791.548584	1432.000000
791.584778	1417.000000
791.620850	1403.000000
791.656982	1405.000000
791.693115	1419.000000
791.729187	1440.000000
791.765381	1456.000000
791.801514	1460.000000
791.837585	1437.000000
791.873718	1433.000000
791.909851	1441.000000
791.945923	1455.000000
791.982056	1446.000000
792.018188	1478.000000
792.054260	1468.000000
792.090393	1463.000000
792.126465	1446.000000
792.162598	1437.000000
792.198669	1463.000000
792.234741	1465.000000
792.270874	1456.000000
792.307007	1441.000000
792.343079	1417.000000
792.379150	1430.000000
792.415283	1415.000000
792.451355	1437.000000
792.487488	1427.000000
792.523560	1428.000000
792.559631	1423.000000
792.595764	1383.000000
792.631836	1390.000000
792.667908	1397.000000
792.703979	1417.000000
792.740051	1422.000000
792.776184	1434.000000
792.812256	1406.000000
792.848328	1409.000000
792.884399	1410.000000
792.920471	1417.000000
792.956543	1422.000000
792.992615	1439.000000
793.028748	1425.000000
793.064758	1426.000000
793.100830	1422.000000
793.136963	1415.000000
793.172974	1433.000000
793.209045	1441.000000
793.245178	1446.000000
793.281189	1429.000000
793.317261	1417.000000
793.353271	1383.000000
793.389404	1414.000000
793.425476	1396.000000
793.461487	1414.000000
793.497559	1401.000000
793.533630	1391.000000
793.569641	1366.000000
793.605713	1361.000000
793.641785	1371.000000
793.677795	1383.000000
793.713867	1373.000000
793.749878	1386.000000
793.785950	1409.000000
793.822021	1391.000000
793.858032	1381.000000
793.894104	1402.000000
793.930176	1387.000000
793.966187	1421.000000
794.002258	1406.000000
794.038269	1424.000000
794.074280	1396.000000
794.110352	1415.000000
794.146423	1420.000000
794.182373	1429.000000
794.218445	1411.000000
794.254517	1423.000000
794.290466	1381.000000
794.326538	1367.000000
794.362549	1384.000000
794.398560	1377.000000
794.434631	1374.000000
794.470581	1351.000000
794.506653	1336.000000
794.542664	1323.000000
794.578674	1308.000000
794.614685	1311.000000
794.650757	1322.000000
794.686707	1324.000000
794.722778	1333.000000
794.758789	1330.000000
794.794739	1331.000000
794.830811	1331.000000
794.866821	1352.000000
794.902771	1368.000000
794.938843	1360.000000
794.974792	1375.000000
795.010803	1381.000000
795.046814	1366.000000
795.082825	1339.000000
795.118835	1373.000000
795.154846	1361.000000
795.190796	1364.000000
795.226807	1351.000000
795.262817	1358.000000
795.298767	1327.000000
795.334778	1325.000000
795.370850	1317.000000
795.406799	1321.000000
795.442810	1313.000000
795.478821	1322.000000
795.514709	1295.000000
795.550720	1313.000000
795.586670	1285.000000
795.622681	1291.000000
795.658691	1312.000000
795.694641	1323.000000
795.730652	1320.000000
795.766663	1333.000000
795.802551	1328.000000
795.838562	1328.000000
795.874573	1336.000000
795.910522	1342.000000
795.946472	1351.000000
795.982483	1352.000000
796.018433	1329.000000
796.054382	1318.000000
796.090393	1296.000000
796.126282	1325.000000
796.162292	1309.000000
796.198242	1315.000000
796.234192	1296.000000
796.270203	1263.000000
796.306091	1277.000000
796.342041	1297.000000
796.378052	1284.000000
796.413940	1296.000000
796.449951	1287.000000
796.485901	1290.000000
796.521790	1262.000000
796.557800	1287.000000
796.593689	1288.000000
796.629639	1308.000000
796.665649	1323.000000
796.701599	1315.000000
796.737488	1295.000000
796.773437	1292.000000
796.809387	1306.000000
796.845337	1315.000000
796.881287	1335.000000
796.917175	1329.000000
796.953125	1321.000000
796.989075	1319.000000
797.024963	1285.000000
797.060913	1295.000000
797.096863	1309.000000
797.132751	1311.000000
797.168701	1288.000000
797.204590	1284.000000
797.240540	1264.000000
797.276489	1251.000000
797.312439	1247.000000
797.348328	1262.000000
797.384277	1267.000000
797.420166	1283.000000
797.456055	1261.000000
797.492004	1236.000000
797.527893	1235.000000
797.563843	1243.000000
797.599731	1260.000000
797.635620	1251.000000
797.671570	1268.000000
797.707520	1249.000000
797.743347	1246.000000
797.779297	1242.000000
797.815125	1258.000000
797.851074	1274.000000
797.887024	1269.000000
797.922913	1264.000000
797.958801	1258.000000
797.994690	1218.000000
798.030579	1225.000000
798.066467	1245.000000
798.102356	1245.000000
798.138245	1254.000000
798.174133	1240.000000
798.210083	1221.000000
798.245911	1209.000000
798.281799	1218.000000
798.317749	1213.000000
798.353577	1239.000000
798.389465	1237.000000
798.425293	1229.000000
798.461243	1212.000000
798.497131	1213.000000
798.532959	1222.000000
798.568848	1238.000000
798.604736	1234.000000
798.640564	1216.000000
798.676453	1192.000000
798.712402	1184.000000
798.748230	1176.000000
798.784119	1177.000000
798.820007	1211.000000
798.855835	1219.000000
798.891724	1202.000000
798.927551	1196.000000
798.963379	1189.000000
798.999268	1193.000000
799.035095	1183.000000
799.070984	1193.000000
799.106873	1187.000000
799.142700	1203.000000
799.178528	1168.000000
799.214417	1162.000000
799.250244	1168.000000
799.286133	1173.000000
799.321960	1194.000000
799.357788	1187.000000
799.393677	1173.000000
799.429504	1179.000000
799.465332	1161.000000
799.501221	1175.000000
799.537048	1191.000000
799.572876	1191.000000
799.608704	1185.000000
799.644531	1172.000000
799.680359	1174.000000
799.716248	1194.000000
799.752014	1197.000000
799.787903	1182.000000
799.823730	1185.000000
799.859558	1171.000000
799.895386	1157.000000
799.931213	1137.000000
799.967041	1136.000000
800.002869	1141.000000
800.038696	1172.000000
800.074463	1155.000000
800.110352	1145.000000
800.146179	1114.000000
800.181946	1116.000000
800.217773	1114.000000
800.253540	1136.000000
800.289429	1150.000000
800.325256	1138.000000
800.361023	1110.000000
800.396851	1103.000000
800.432678	1090.000000
800.468445	1101.000000
800.504272	1120.000000
800.540100	1123.000000
800.575867	1105.000000
800.611694	1100.000000
800.647461	1084.000000
800.683289	1069.000000
800.719116	1081.000000
800.754883	1100.000000
800.790649	1077.000000
800.826477	1070.000000
800.862244	1070.000000
800.898071	1060.000000
800.933838	1034.000000
800.969604	1051.000000
801.005432	1061.000000
801.041199	1077.000000
801.076965	1049.000000
801.112793	1030.000000
801.148560	1024.000000
801.184326	1021.000000
801.220154	1024.000000
801.255859	1023.000000
801.291687	1015.000000
801.327454	1023.000000
801.363281	1010.000000
801.398987	994.000000
801.434814	986.000000
801.470520	1002.000000
801.506287	986.000000
801.542114	981.000000
801.577820	995.000000
801.613647	967.000000
801.649414	965.000000
801.685120	968.000000
801.720886	990.000000
801.756714	976.000000
801.792419	991.000000
801.828186	961.000000
801.863892	960.000000
801.899719	965.000000
801.935486	962.000000
801.971252	966.000000
802.006958	976.000000
802.042725	972.000000
802.078430	957.000000
802.114197	930.000000
802.149963	958.000000
802.185669	949.000000
802.221436	957.000000
802.257202	960.000000
802.292908	935.000000
802.328674	936.000000
802.364441	941.000000
802.400146	935.000000
802.435913	953.000000
802.471558	953.000000
802.507324	933.000000
802.543091	926.000000
802.578796	953.000000
802.614502	933.000000
802.650269	948.000000
802.685974	931.000000
802.721741	946.000000
802.757446	963.000000
802.793152	941.000000
802.828918	936.000000
802.864624	946.000000
802.900330	941.000000
802.936035	950.000000
802.971802	945.000000
803.007446	933.000000
803.043213	918.000000
803.078857	920.000000
803.114624	893.000000
803.150330	918.000000
803.185974	910.000000
803.221741	909.000000
803.257446	902.000000
803.293152	909.000000
803.328857	896.000000
803.364563	887.000000
803.400208	890.000000
803.435974	900.000000
803.471680	886.000000
803.507324	870.000000
803.543030	871.000000
803.578735	868.000000
803.614441	872.000000
803.650146	875.000000
803.685791	866.000000
803.721497	872.000000
803.757202	845.000000
803.792847	859.000000
803.828552	843.000000
803.864258	857.000000
803.899902	850.000000
803.935608	828.000000
803.971313	833.000000
804.006958	829.000000
804.042664	820.000000
804.078308	840.000000
804.113953	829.000000
804.149658	843.000000
804.185364	828.000000
804.221008	822.000000
804.256714	818.000000
804.292297	810.000000
804.328003	804.000000
804.363708	797.000000
804.399292	811.000000
804.434998	797.000000
804.470703	795.000000
804.506287	799.000000
804.541992	778.000000
804.577637	799.000000
804.613281	795.000000
804.648926	785.000000
804.684570	800.000000
804.720215	782.000000
804.755920	781.000000
804.791565	773.000000
804.827209	786.000000
804.862854	785.000000
804.898437	795.000000
804.934143	782.000000
804.969788	773.000000
805.005371	795.000000
805.041077	777.000000
805.076721	784.000000
805.112305	786.000000
805.147949	779.000000
805.183655	764.000000
805.219238	774.000000
805.254883	765.000000
805.290466	769.000000
805.326111	779.000000
805.361755	771.000000
805.397400	777.000000
805.432983	776.000000
805.468628	776.000000
805.504211	775.000000
805.539856	759.000000
805.575500	780.000000
805.611084	768.000000
805.646729	767.000000
805.682373	769.000000
805.717957	758.000000
805.753601	771.000000
805.789246	747.000000
805.824768	760.000000
805.860413	772.000000
805.895996	759.000000
805.931641	753.000000
805.967224	753.000000
806.002869	743.000000
806.038452	757.000000
806.074036	758.000000
806.109619	740.000000
806.145264	747.000000
806.180847	733.000000
806.216431	720.000000
806.252014	730.000000
806.287659	724.000000
806.323181	739.000000
806.358826	731.000000
806.394409	718.000000
806.429993	712.000000
806.465576	725.000000
806.501160	705.000000
806.536743	695.000000
806.572327	718.000000
806.607910	719.000000
806.643494	709.000000
806.679077	696.000000
806.714661	693.000000
806.750244	697.000000
806.785828	681.000000
806.821350	683.000000
806.856934	678.000000
806.892517	687.000000
806.928101	673.000000
806.963684	676.000000
806.999268	674.000000
807.034790	663.000000
807.070374	656.000000
807.105896	657.000000
807.141479	652.000000
807.177063	665.000000
807.212585	637.000000
807.248169	653.000000
807.283752	652.000000
807.319275	647.000000
807.354858	640.000000
807.390381	636.000000
807.425903	642.000000
807.461487	647.000000
807.497070	627.000000
807.532593	630.000000
807.568115	632.000000
807.603699	633.000000
807.639221	619.000000
807.674744	628.000000
807.710266	620.000000
807.745850	631.000000
807.781372	618.000000
807.816895	616.000000
807.852417	619.000000
807.888000	613.000000
807.923523	603.000000
807.959045	611.000000
807.994629	612.000000
808.030090	610.000000
808.065613	614.000000
808.101135	619.000000
808.136658	617.000000
808.172241	607.000000
808.207764	611.000000
808.243225	610.000000
808.278809	598.000000
808.314270	606.000000
808.349792	597.000000
808.385315	587.000000
808.420837	597.000000
808.456360	600.000000
808.491882	601.000000
808.527344	597.000000
808.562866	619.000000
808.598389	588.000000
808.633850	591.000000
808.669434	585.000000
808.704895	597.000000
808.740417	600.000000
808.775940	594.000000
808.811462	583.000000
808.846924	583.000000
808.882385	581.000000
808.917847	571.000000
808.953369	575.000000
808.988892	565.000000
809.024353	578.000000
809.059875	578.000000
809.095398	572.000000
809.130798	574.000000
809.166321	577.000000
809.201843	564.000000
809.237305	562.000000
809.272766	560.000000
809.308228	562.000000
809.343750	555.000000
809.379211	553.000000
809.414734	557.000000
809.450134	565.000000
809.485657	539.000000
809.521118	550.000000
809.556580	543.000000
809.592102	542.000000
809.627502	538.000000
809.663025	536.000000
809.698486	530.000000
809.733887	524.000000
809.769409	526.000000
809.804871	518.000000
809.840271	515.000000
809.875793	528.000000
809.911194	520.000000
809.946655	518.000000
809.982178	515.000000
810.017639	517.000000
810.053040	509.000000
810.088501	516.000000
810.123901	511.000000
810.159424	517.000000
810.194885	498.000000
810.230286	509.000000
810.265747	507.000000
810.301208	499.000000
810.336609	501.000000
810.372070	488.000000
810.407532	487.000000
810.442932	497.000000
810.478394	503.000000
810.513794	495.000000
810.549255	492.000000
810.584717	492.000000
810.620117	476.000000
810.655518	487.000000
810.690979	485.000000
810.726379	484.000000
810.761841	483.000000
810.797302	477.000000
810.832642	475.000000
810.868103	484.000000
810.903564	472.000000
810.938904	479.000000
810.974365	483.000000
811.009827	476.000000
811.045166	470.000000
811.080627	463.000000
811.115967	469.000000
811.151428	472.000000
811.186829	473.000000
811.222229	462.000000
811.257629	465.000000
811.293091	459.000000
811.328430	474.000000
811.363892	461.000000
811.399292	475.000000
811.434631	466.000000
811.470093	465.000000
811.505493	458.000000
811.540833	457.000000
811.576294	459.000000
811.611694	465.000000
811.647034	455.000000
811.682434	457.000000
811.717773	463.000000
811.753235	470.000000
811.788635	456.000000
811.823975	461.000000
811.859375	470.000000
811.894775	445.000000
811.930115	456.000000
811.965515	453.000000
812.000916	461.000000
812.036255	453.000000
812.071655	452.000000
812.106995	443.000000
812.142395	441.000000
812.177795	449.000000
812.213196	453.000000
812.248474	454.000000
812.283875	433.000000
812.319214	435.000000
812.354614	444.000000
812.390015	432.000000
812.425293	436.000000
812.460693	434.000000
812.496094	425.000000
812.531433	413.000000
812.566772	427.000000
812.602173	427.000000
812.637451	425.000000
812.672852	422.000000
812.708191	432.000000
812.743530	422.000000
812.778931	410.000000
812.814270	420.000000
812.849609	428.000000
812.884949	410.000000
812.920227	409.000000
812.955627	427.000000
812.990967	423.000000
813.026306	411.000000
813.061646	395.000000
813.096985	395.000000
813.132324	393.000000
813.167664	394.000000
813.203003	408.000000
813.238281	393.000000
813.273682	394.000000
813.308960	387.000000
813.344299	379.000000
813.379639	388.000000
813.414978	389.000000
813.450256	387.000000
813.485596	391.000000
813.520874	382.000000
813.556213	379.000000
813.591614	383.000000
813.626831	375.000000
813.662170	384.000000
813.697510	393.000000
813.732788	377.000000
813.768127	384.000000
813.803467	388.000000
813.838745	377.000000
813.874084	387.000000
813.909363	378.000000
813.944641	382.000000
813.979980	374.000000
814.015320	371.000000
814.050598	371.000000
814.085876	377.000000
814.121155	370.000000
814.156494	366.000000
814.191772	370.000000
814.227051	364.000000
814.262390	367.000000
814.297668	372.000000
814.332947	368.000000
814.368225	361.000000
814.403564	365.000000
814.438782	361.000000
814.474121	365.000000
814.509338	364.000000
814.544617	366.000000
814.579956	353.000000
814.615173	373.000000
814.650513	368.000000
814.685791	353.000000
814.721008	359.000000
814.756348	362.000000
814.791626	362.000000
814.826843	363.000000
814.862122	360.000000
814.897400	349.000000
814.932678	355.000000
814.967957	353.000000
815.003235	352.000000
815.038452	349.000000
815.073730	342.000000
815.108948	357.000000
815.144226	343.000000
815.179504	350.000000
815.214722	338.000000
815.250000	339.000000
815.285278	342.000000
815.320496	342.000000
815.355774	337.000000
815.391052	344.000000
815.426270	337.000000
815.461487	342.000000
815.496765	334.000000
815.531982	327.000000
815.567261	328.000000
815.602539	340.000000
815.637695	332.000000
815.672974	335.000000
815.708191	335.000000
815.743408	342.000000
815.778687	329.000000
815.813904	345.000000
815.849121	319.000000
815.884399	333.000000
815.919556	320.000000
815.954834	323.000000
815.990051	330.000000
816.025269	332.000000
816.060486	330.000000
816.095703	330.000000
816.130920	320.000000
816.166199	323.000000
816.201416	332.000000
816.236572	323.000000
816.271851	316.000000
816.307007	320.000000
816.342224	307.000000
816.377441	320.000000
816.412659	315.000000
816.447876	317.000000
816.483093	314.000000
816.518250	310.000000
816.553467	312.000000
816.588745	312.000000
816.623901	312.000000
816.659119	295.000000
816.694275	304.000000
816.729492	305.000000
816.764709	341.000000
816.799927	300.000000
816.835083	310.000000
816.870300	300.000000
816.905457	310.000000
816.940674	303.000000
816.975830	300.000000
817.010986	298.000000
817.046204	302.000000
817.081421	290.000000
817.116577	295.000000
817.151733	306.000000
817.186951	305.000000
817.222107	301.000000
817.257324	305.000000
817.292419	296.000000
817.327637	294.000000
817.362854	305.000000
817.398010	293.000000
817.433167	295.000000
817.468323	296.000000
817.503479	296.000000
817.538635	307.000000
817.573853	300.000000
817.608948	293.000000
817.644165	293.000000
817.679321	291.000000
817.714478	291.000000
817.749634	297.000000
817.784790	309.000000
817.819946	301.000000
817.855103	274.000000
817.890198	296.000000
817.925415	283.000000
817.960571	291.000000
817.995667	287.000000
818.030823	290.000000
818.066040	289.000000
818.101135	291.000000
818.136292	296.000000
818.171448	288.000000
818.206543	296.000000
818.241699	293.000000
818.276855	294.000000
818.311951	287.000000
818.347107	282.000000
818.382263	285.000000
818.417358	299.000000
818.452515	291.000000
818.487610	298.000000
818.522766	277.000000
818.557922	295.000000
818.593018	288.000000
818.628113	289.000000
818.663269	279.000000
818.698364	285.000000
818.733521	284.000000
818.768677	282.000000
818.803711	274.000000
818.838867	279.000000
818.874023	280.000000
818.909058	280.000000
818.944214	276.000000
818.979370	281.000000
819.014404	284.000000
819.049561	275.000000
819.084595	277.000000
819.119751	269.000000
819.154846	280.000000
819.189941	276.000000
819.225037	275.000000
819.260193	265.000000
819.295227	268.000000
819.330322	266.000000
819.365479	263.000000
819.400513	296.000000
819.435608	260.000000
819.470764	259.000000
819.505798	260.000000
819.540894	264.000000
819.575989	264.000000
819.611084	265.000000
819.646179	270.000000
819.681213	266.000000
819.716309	261.000000
819.751404	267.000000
819.786438	273.000000
819.821533	260.000000
819.856628	262.000000
819.891663	264.000000
819.926758	269.000000
819.961853	262.000000
819.996887	258.000000
820.031982	262.000000
820.067017	260.000000
820.102112	285.000000
820.137207	259.000000
820.172302	273.000000
820.207275	259.000000
820.242371	252.000000
820.277405	261.000000
820.312500	263.000000
820.347534	259.000000
820.382568	263.000000
820.417664	254.000000
820.452759	254.000000
820.487732	257.000000
820.522827	254.000000
820.557861	250.000000
820.592896	257.000000
820.627930	258.000000
820.662964	247.000000
820.698059	257.000000
820.733093	254.000000
820.768127	255.000000
820.803162	261.000000
820.838196	248.000000
820.873230	252.000000
820.908264	251.000000
820.943298	252.000000
820.978333	253.000000
821.013367	254.000000
821.048401	260.000000
821.083435	261.000000
821.118469	242.000000
821.153503	252.000000
821.188477	250.000000
821.223511	245.000000
821.258484	248.000000
821.293579	253.000000
821.328613	241.000000
821.363647	247.000000
821.398621	237.000000
821.433655	244.000000
821.468628	263.000000
821.503662	247.000000
821.538696	248.000000
821.573669	246.000000
821.608704	247.000000
821.643677	241.000000
821.678650	255.000000
821.713684	250.000000
821.748718	240.000000
821.783691	244.000000
821.818726	245.000000
821.853638	252.000000
821.888672	244.000000
821.923706	241.000000
821.958618	239.000000
821.993652	242.000000
822.028687	248.000000
822.063599	248.000000
822.098633	247.000000
822.133667	240.000000
822.168579	243.000000
822.203613	240.000000
822.238586	237.000000
822.273560	241.000000
822.308533	237.000000
822.343567	234.000000
822.378479	238.000000
822.413452	235.000000
822.448425	232.000000
822.483398	241.000000
822.518372	244.000000
822.553345	229.000000
822.588318	245.000000
822.623291	235.000000
822.658203	230.000000
822.693237	231.000000
822.728210	228.000000
822.763123	236.000000
822.798096	229.000000
822.833069	234.000000
822.867981	233.000000
822.902954	227.000000
822.937927	236.000000
822.972900	239.000000
823.007874	225.000000
823.042725	238.000000
823.077698	245.000000
823.112671	229.000000
823.147583	232.000000
823.182556	233.000000
823.217529	234.000000
823.252441	229.000000
823.287415	243.000000
823.322388	233.000000
823.357239	232.000000
823.392212	235.000000
823.427185	231.000000
823.462097	230.000000
823.497009	233.000000
823.531982	231.000000
823.566895	231.000000
823.601807	224.000000
823.636719	226.000000
823.671631	235.000000
823.706604	225.000000
823.741455	234.000000
823.776428	220.000000
823.811340	233.000000
823.846252	234.000000
823.881165	237.000000
823.916138	229.000000
823.950989	233.000000
823.985901	222.000000
824.020813	228.000000
824.055725	222.000000
824.090637	220.000000
824.125610	221.000000
824.160461	222.000000
824.195374	227.000000
824.230225	230.000000
824.265198	216.000000
824.300110	226.000000
824.334961	230.000000
824.369873	217.000000
824.404785	225.000000
824.439636	233.000000
824.474548	213.000000
824.509460	213.000000
824.544312	225.000000
824.579224	225.000000
824.614075	226.000000
824.648987	220.000000
824.683899	222.000000
824.718811	221.000000
824.753662	226.000000
824.788574	232.000000
824.823364	223.000000
824.858276	220.000000
824.893188	230.000000
824.928040	226.000000
824.962952	223.000000
824.997803	224.000000
825.032654	221.000000
825.067566	226.000000
825.102417	219.000000
825.137268	218.000000
825.172119	225.000000
825.206970	215.000000
825.241882	217.000000
825.276733	214.000000
825.311646	220.000000
825.346436	211.000000
825.381348	213.000000
825.416138	221.000000
825.450989	216.000000
825.485901	209.000000
825.520691	218.000000
825.555542	213.000000
825.590454	215.000000
825.625244	211.000000
825.660095	226.000000
825.695007	222.000000
825.729797	221.000000
825.764648	215.000000
825.799438	212.000000
825.834290	215.000000
825.869202	210.000000
825.903992	217.000000
825.938843	215.000000
825.973694	210.000000
826.008484	229.000000
826.043335	213.000000
826.078186	210.000000
826.112976	221.000000
826.147827	220.000000
826.182678	227.000000
826.217468	209.000000
826.252319	224.000000
826.287109	207.000000
826.321899	220.000000
826.356750	214.000000
826.391541	213.000000
826.426392	217.000000
826.461182	217.000000
826.495972	209.000000
826.530823	208.000000
826.565613	214.000000
826.600403	212.000000
826.635254	218.000000
826.670044	208.000000
826.704834	203.000000
826.739685	207.000000
826.774475	215.000000
826.809265	213.000000
826.844055	212.000000
826.878906	221.000000
826.913635	208.000000
826.948425	216.000000
826.983215	213.000000
827.018005	219.000000
827.052856	206.000000
827.087585	217.000000
827.122375	200.000000
827.157227	211.000000
827.191956	218.000000
827.226746	205.000000
827.261536	213.000000
827.296265	205.000000
827.331116	207.000000
827.365906	213.000000
827.400635	202.000000
827.435425	199.000000
827.470215	217.000000
827.504944	209.000000
827.539734	212.000000
827.574463	208.000000
827.609253	217.000000
827.644043	214.000000
827.678772	215.000000
827.713562	212.000000
827.748352	210.000000
827.783081	199.000000
827.817871	210.000000
827.852600	203.000000
827.887329	207.000000
827.922119	201.000000
827.956848	215.000000
827.991638	221.000000
828.026367	216.000000
828.061157	204.000000
828.095886	206.000000
828.130615	222.000000
828.165344	201.000000
828.200073	209.000000
828.234863	209.000000
828.269592	207.000000
828.304321	212.000000
828.339111	206.000000
828.373779	204.000000
828.408569	211.000000
828.443298	213.000000
828.477966	203.000000
828.512756	212.000000
828.547424	201.000000
828.582214	206.000000
828.616943	203.000000
828.651672	206.000000
828.686340	211.000000
828.721130	204.000000
828.755798	203.000000
828.790527	210.000000
828.825256	206.000000
828.859924	208.000000
828.894714	214.000000
828.929443	216.000000
828.964111	205.000000
828.998840	208.000000
829.033569	201.000000
829.068237	204.000000
829.102966	203.000000
829.137634	207.000000
829.172363	208.000000
829.207092	204.000000
829.241821	198.000000
829.276489	199.000000
829.311157	207.000000
829.345825	199.000000
829.380554	213.000000
829.415283	202.000000
829.449951	202.000000
829.484619	213.000000
829.519348	214.000000
829.554016	199.000000
829.588745	203.000000
829.623413	196.000000
829.658081	220.000000
829.692749	194.000000
829.727417	211.000000
829.762146	202.000000
829.796814	201.000000
829.831482	201.000000
829.866150	205.000000
829.900879	203.000000
829.935486	209.000000
829.970154	199.000000
830.004883	217.000000
830.039490	202.000000
830.074219	201.000000
830.108887	205.000000
830.143494	199.000000
830.178223	193.000000
830.212891	208.000000
830.247498	206.000000
830.282166	212.000000
830.316772	209.000000
830.351501	205.000000
830.386169	200.000000
830.420776	204.000000
830.455444	204.000000
830.490112	200.000000
830.524719	196.000000
830.559387	209.000000
830.594055	206.000000
830.628662	204.000000
830.663330	203.000000
830.697998	211.000000
830.732605	202.000000
830.767273	204.000000
830.801941	200.000000
830.836487	213.000000
830.871155	205.000000
830.905762	199.000000
830.940430	196.000000
830.975098	196.000000
831.009644	204.000000
831.044312	213.000000
831.078979	203.000000
831.113525	189.000000
831.148193	207.000000
831.182861	202.000000
831.217407	206.000000
831.252075	221.000000
831.286621	200.000000
831.321289	192.000000
831.355896	202.000000
831.390564	214.000000
831.425110	205.000000
831.459778	209.000000
831.494324	218.000000
831.528931	204.000000
831.563599	207.000000
831.598145	193.000000
831.632751	201.000000
831.667419	202.000000
831.701965	212.000000
831.736572	204.000000
831.771179	200.000000
831.805786	197.000000
831.840393	210.000000
831.874939	196.000000
831.909546	212.000000
831.944153	193.000000
831.978760	204.000000
832.013306	197.000000
832.047913	208.000000
832.082458	212.000000
832.117065	197.000000
832.151672	208.000000
832.186218	205.000000
832.220825	204.000000
832.255432	191.000000
832.289978	199.000000
832.324585	204.000000
832.359192	205.000000
832.393677	203.000000
832.428284	208.000000
832.462830	199.000000
832.497437	203.000000
832.531982	207.000000
832.566589	202.000000
832.601135	202.000000
832.635681	193.000000
832.670227	197.000000
832.704773	212.000000
832.739380	205.000000
832.773926	202.000000
832.808472	196.000000
832.843079	204.000000
832.877563	201.000000
832.912170	203.000000
832.946716	195.000000
832.981201	207.000000
833.015808	201.000000
833.050293	206.000000
833.084839	197.000000
833.119446	204.000000
833.153992	207.000000
833.188477	198.000000
833.223022	200.000000
833.257568	204.000000
833.292114	209.000000
833.326660	215.000000
833.361145	203.000000
833.395691	192.000000
833.430237	203.000000
833.464783	208.000000
833.499329	201.000000
833.533875	201.000000
833.568359	206.000000
833.602905	207.000000
833.637390	211.000000
833.671875	201.000000
833.706421	201.000000
833.740906	199.000000
833.775452	195.000000
833.809998	195.000000
833.844482	212.000000
833.879028	200.000000
833.913513	200.000000
833.947998	205.000000
833.982544	197.000000
834.017090	197.000000
834.051514	192.000000
834.086060	204.000000
834.120544	199.000000
834.155029	206.000000
834.189575	199.000000
834.223999	201.000000
834.258545	203.000000
834.293030	201.000000
834.327515	201.000000
834.362000	197.000000
834.396545	209.000000
834.430969	201.000000
834.465454	210.000000
834.500000	195.000000
834.534424	203.000000
834.568970	194.000000
834.603455	196.000000
834.637878	193.000000
834.672363	209.000000
834.706909	205.000000
834.741333	205.000000
834.775818	195.000000
834.810242	199.000000
834.844727	204.000000
834.879211	202.000000
834.913635	204.000000
834.948181	203.000000
834.982666	203.000000
835.017090	197.000000
835.051575	205.000000
835.086060	199.000000
835.120483	207.000000
835.154907	203.000000
835.189331	205.000000
835.223816	204.000000
835.258301	194.000000
835.292786	196.000000
835.327209	213.000000
835.361694	196.000000
835.396057	205.000000
835.430542	207.000000
835.465027	202.000000
835.499390	189.000000
835.533875	222.000000
835.568359	195.000000
835.602722	198.000000
835.637207	202.000000
835.671692	197.000000
835.706055	213.000000
835.740540	203.000000
835.774902	201.000000
835.809387	202.000000
835.843811	196.000000
835.878235	206.000000
835.912659	194.000000
835.947083	199.000000
835.981506	198.000000
836.015930	197.000000
836.050354	209.000000
836.084778	210.000000
836.119202	209.000000
836.153625	218.000000
836.187988	197.000000
836.222473	202.000000
836.256897	206.000000
836.291260	204.000000
836.325684	207.000000
836.360046	196.000000
836.394470	202.000000
836.428894	210.000000
836.463318	199.000000
836.497681	207.000000
836.532104	211.000000
836.566467	203.000000
836.600891	202.000000
836.635315	204.000000
836.669678	210.000000
836.704102	203.000000
836.738525	203.000000
836.772888	191.000000
836.807251	203.000000
836.841675	205.000000
836.876038	199.000000
836.910461	194.000000
836.944763	209.000000
836.979187	197.000000
837.013611	205.000000
837.047974	193.000000
837.082336	215.000000
837.116699	201.000000
837.151062	204.000000
837.185486	194.000000
837.219849	201.000000
837.254211	204.000000
837.288574	201.000000
837.322937	193.000000
837.357300	189.000000
837.391663	219.000000
837.426086	207.000000
837.460388	205.000000
837.494751	209.000000
837.529114	198.000000
837.563477	209.000000
837.597839	207.000000
837.632141	203.000000
837.666565	203.000000
837.700928	206.000000
837.735229	205.000000
837.769592	207.000000
837.803955	207.000000
837.838257	199.000000
837.872620	203.000000
837.906982	209.000000
837.941284	203.000000
837.975647	203.000000
838.010010	213.000000
838.044312	197.000000
838.078674	200.000000
838.112976	204.000000
838.147339	208.000000
838.181702	205.000000
838.216003	214.000000
838.250366	204.000000
838.284668	204.000000
838.318970	196.000000
838.353333	198.000000
838.387634	200.000000
838.421936	203.000000
838.456299	199.000000
838.490601	211.000000
838.524902	203.000000
838.559265	207.000000
838.593567	206.000000
838.627869	197.000000
838.662170	201.000000
838.696472	195.000000
838.730774	199.000000
838.765137	205.000000
838.799377	185.000000
838.833740	206.000000
838.868042	204.000000
838.902283	195.000000
838.936646	211.000000
838.970947	205.000000
839.005188	208.000000
839.039551	197.000000
839.073792	209.000000
839.108093	203.000000
839.142395	212.000000
839.176697	194.000000
839.210937	206.000000
839.245300	213.000000
839.279541	197.000000
839.313843	201.000000
839.348145	211.000000
839.382385	207.000000
839.416687	210.000000
839.450989	203.000000
839.485229	203.000000
839.519531	201.000000
839.553833	213.000000
839.588013	201.000000
839.622314	200.000000
839.656555	201.000000
839.690857	201.000000
839.725159	197.000000
839.759460	202.000000
839.793640	195.000000
839.827942	204.000000
839.862183	199.000000
839.896423	205.000000
839.930725	210.000000
839.964966	209.000000
839.999207	205.000000
840.033508	211.000000
840.067688	196.000000
840.101990	211.000000
840.136230	203.000000
840.170471	216.000000
840.204712	199.000000
840.238953	200.000000
840.273193	209.000000
840.307434	204.000000
840.341736	196.000000
840.375916	198.000000
840.410217	200.000000
840.444397	208.000000
840.478638	204.000000
840.512878	211.000000
840.547119	209.000000
840.581360	205.000000
840.615601	213.000000
840.649780	209.000000
840.684021	205.000000
840.718262	205.000000
840.752441	209.000000
840.786682	205.000000
840.820862	205.000000
840.855103	206.000000
840.889343	206.000000
840.923584	203.000000
840.957764	212.000000
840.992004	201.000000
841.026184	215.000000
841.060425	199.000000
841.094666	199.000000
841.128845	203.000000
841.163025	209.000000
841.197266	202.000000
841.231445	204.000000
841.265686	201.000000
841.299866	199.000000
841.334045	211.000000
841.368286	203.000000
841.402405	212.000000
841.436646	206.000000
841.470825	196.000000
841.505005	204.000000
841.539185	197.000000
841.573425	200.000000
841.607544	205.000000
841.641785	201.000000
841.675964	198.000000
841.710144	205.000000
841.744324	200.000000
841.778503	204.000000
841.812683	199.000000
841.846863	210.000000
841.881042	207.000000
841.915222	203.000000
841.949402	217.000000
841.983521	193.000000
842.017700	204.000000
842.051880	202.000000
842.086060	206.000000
842.120239	203.000000
842.154419	203.000000
842.188538	205.000000
842.222717	200.000000
842.256897	211.000000
842.291016	207.000000
842.325195	204.000000
842.359375	216.000000
842.393494	209.000000
842.427673	204.000000
842.461853	200.000000
842.495911	213.000000
842.530090	205.000000
842.564209	198.000000
842.598389	204.000000
842.632568	205.000000
842.666626	203.000000
842.700806	205.000000
842.734985	203.000000
842.769043	205.000000
842.803223	200.000000
842.837402	204.000000
842.871460	198.000000
842.905640	212.000000
842.939697	197.000000
842.973877	209.000000
843.007996	209.000000
843.042175	212.000000
843.076233	196.000000
843.110413	205.000000
843.144470	212.000000
843.178589	206.000000
843.212769	202.000000
843.246826	207.000000
843.280945	201.000000
843.315125	205.000000
843.349182	199.000000
843.383301	213.000000
843.417419	219.000000
843.451538	201.000000
843.485657	204.000000
843.519714	207.000000
843.553833	208.000000
843.587952	197.000000
843.622070	202.000000
843.656128	202.000000
843.690247	203.000000
843.724304	200.000000
843.758423	204.000000
843.792542	201.000000
843.826599	205.000000
843.860718	199.000000
843.894836	196.000000
843.928894	205.000000
843.963013	211.000000
843.997070	194.000000
844.031128	198.000000
844.065247	207.000000
844.099304	209.000000
844.133362	206.000000
844.167480	209.000000
844.201599	207.000000
844.235596	207.000000
844.269714	205.000000
844.303711	205.000000
844.337830	198.000000
844.371948	215.000000
844.405945	199.000000
844.440063	200.000000
844.474121	219.000000
844.508118	205.000000
844.542236	205.000000
844.576294	202.000000
844.610352	201.000000
844.644409	205.000000
844.678406	193.000000
844.712524	206.000000
844.746582	211.000000
844.780640	208.000000
844.814636	202.000000
844.848755	213.000000
844.882751	207.000000
844.916809	211.000000
844.950867	210.000000
844.984863	213.000000
845.018921	204.000000
845.052979	201.000000
845.086975	205.000000
845.121033	196.000000
845.155090	203.000000
845.189087	209.000000
845.223145	199.000000
845.257141	199.000000
845.291199	206.000000
845.325256	206.000000
845.359253	206.000000
845.393250	211.000000
845.427307	202.000000
845.461304	208.000000
845.495361	204.000000
845.529358	211.000000
845.563354	198.000000
845.597412	193.000000
845.631409	211.000000
845.665405	211.000000
845.699463	207.000000
845.733459	199.000000
845.767456	214.000000
845.801453	205.000000
845.835449	210.000000
845.869446	207.000000
845.903503	211.000000
845.937439	197.000000
845.971497	213.000000
846.005493	198.000000
846.039429	205.000000
846.073486	213.000000
846.107483	203.000000
846.141418	200.000000
846.175476	204.000000
846.209473	212.000000
846.243408	201.000000
846.277405	210.000000
846.311401	198.000000
846.345337	204.000000
846.379395	212.000000
846.413330	206.000000
846.447327	208.000000
846.481323	195.000000
846.515259	199.000000
846.549255	207.000000
846.583252	206.000000
846.617187	194.000000
846.651184	202.000000
846.685120	205.000000
846.719055	211.000000
846.753052	208.000000
846.786987	204.000000
846.820984	195.000000
846.854980	209.000000
846.888916	201.000000
846.922852	201.000000
846.956848	211.000000
846.990723	196.000000
847.024719	205.000000
847.058716	202.000000
847.092590	214.000000
847.126587	204.000000
847.160522	198.000000
847.194458	203.000000
847.228455	199.000000
847.262390	193.000000
847.296265	205.000000
847.330261	210.000000
847.364136	202.000000
847.398132	197.000000
847.432068	205.000000
847.466003	200.000000
847.499939	203.000000
847.533875	203.000000
847.567749	203.000000
847.601746	205.000000
847.635681	206.000000
847.669556	194.000000
847.703491	204.000000
847.737427	222.000000
847.771301	197.000000
847.805237	209.000000
847.839233	205.000000
847.873108	201.000000
847.907043	203.000000
847.940918	212.000000
847.974854	202.000000
848.008789	206.000000
848.042664	201.000000
848.076538	206.000000
848.110474	202.000000
848.144348	206.000000
848.178284	196.000000
848.212219	207.000000
848.246094	201.000000
848.279968	205.000000
848.313904	209.000000
848.347778	205.000000
848.381653	197.000000
848.415588	203.000000
848.449463	195.000000
848.483337	203.000000
848.517212	207.000000
848.551086	207.000000
848.585022	199.000000
848.618835	210.000000
848.652771	204.000000
848.686646	201.000000
848.720520	209.000000
848.754395	205.000000
848.788330	206.000000
848.822144	212.000000
848.856018	205.000000
848.889954	211.000000
848.923767	201.000000
848.957642	204.000000
848.991577	209.000000
849.025391	204.000000
849.059265	202.000000
849.093079	200.000000
849.126953	204.000000
849.160828	210.000000
849.194641	203.000000
849.228577	201.000000
849.262451	205.000000
849.296265	197.000000
849.330139	204.000000
849.364014	203.000000
849.397827	207.000000
849.431702	200.000000
849.465515	209.000000
849.499329	192.000000
849.533203	198.000000
849.567078	193.000000
849.600891	207.000000
849.634766	199.000000
849.668518	205.000000
849.702393	200.000000
849.736267	201.000000
849.770020	218.000000
849.803894	206.000000
849.837769	205.000000
849.871521	205.000000
849.905396	208.000000
849.939270	200.000000
849.973022	203.000000
850.006897	208.000000
850.040710	208.000000
850.074524	209.000000
850.108337	201.000000
850.142151	206.000000
850.175964	214.000000
850.209778	205.000000
850.243530	189.000000
850.277405	213.000000
850.311218	200.000000
850.344971	198.000000
850.378845	214.000000
850.412659	202.000000
850.446411	207.000000
850.480225	204.000000
850.514038	208.000000
850.547791	205.000000
850.581665	205.000000
850.615417	199.000000
850.649231	208.000000
850.683044	202.000000
850.716858	204.000000
850.750610	205.000000
850.784424	211.000000
850.818176	198.000000
850.851929	202.000000
850.885742	195.000000
850.919495	203.000000
850.953308	213.000000
850.987122	213.000000
851.020874	196.000000
851.054626	196.000000
851.088440	208.000000
851.122192	210.000000
851.156006	201.000000
851.189697	202.000000
851.223511	195.000000
851.257263	210.000000
851.291077	204.000000
851.324829	200.000000
851.358582	199.000000
851.392334	201.000000
851.426086	202.000000
851.459900	214.000000
851.493591	205.000000
851.527344	206.000000
851.561157	204.000000
851.594849	207.000000
851.628662	205.000000
851.662415	214.000000
851.696106	205.000000
851.729858	201.000000
851.763611	196.000000
851.797363	203.000000
851.831116	200.000000
851.864868	205.000000
851.898560	210.000000
851.932312	199.000000
851.966064	209.000000
851.999817	204.000000
852.033569	203.000000
852.067261	205.000000
852.101013	196.000000
852.134766	199.000000
852.168457	196.000000
852.202209	201.000000
852.235901	199.000000
852.269592	208.000000
852.303345	215.000000
852.337036	202.000000
852.370789	203.000000
852.404541	204.000000
852.438171	199.000000
852.471924	202.000000
852.505676	198.000000
852.539307	202.000000
852.573059	200.000000
852.606812	203.000000
852.640442	200.000000
852.674194	207.000000
852.707886	217.000000
852.741577	211.000000
852.775269	197.000000
852.809021	207.000000
852.842651	206.000000
852.876404	210.000000
852.910034	201.000000
852.943787	211.000000
852.977478	206.000000
853.011108	201.000000
853.044861	201.000000
853.078552	214.000000
853.112183	204.000000
853.145874	206.000000
853.179626	195.000000
853.213257	203.000000
853.246948	200.000000
853.280640	215.000000
853.314270	203.000000
853.347961	206.000000
853.381653	205.000000
853.415283	211.000000
853.448975	198.000000
853.482605	209.000000
853.516296	199.000000
853.549988	197.000000
853.583618	202.000000
853.617310	206.000000
853.651001	201.000000
853.684631	198.000000
853.718323	196.000000
853.751953	211.000000
853.785583	192.000000
853.819275	210.000000
853.852966	202.000000
853.886536	195.000000
853.920227	195.000000
853.953918	205.000000
853.987488	200.000000
854.021179	206.000000
854.054749	208.000000
854.088440	208.000000
854.122131	201.000000
854.155701	208.000000
854.189331	199.000000
854.223022	211.000000
854.256592	204.000000
854.290283	201.000000
854.323914	208.000000
854.357483	205.000000
854.391174	208.000000
854.424744	215.000000
854.458374	203.000000
854.492065	216.000000
854.525696	206.000000
854.559265	209.000000
854.592896	215.000000
854.626465	205.000000
854.660095	203.000000
854.693787	205.000000
854.727356	207.000000
854.760986	207.000000
854.794617	206.000000
854.828186	205.000000
854.861816	206.000000
854.895447	207.000000
854.929016	208.000000
854.962585	205.000000
854.996155	214.000000
855.029785	201.000000
855.063416	206.000000
855.097046	209.000000
855.130615	200.000000
855.164185	207.000000
855.197754	203.000000
855.231384	205.000000
855.264954	199.000000
855.298523	205.000000
855.332153	206.000000
855.365723	211.000000
855.399292	201.000000
855.432922	201.000000
855.466492	202.000000
855.500061	199.000000
855.533630	205.000000
855.567200	205.000000
855.600769	209.000000
855.634338	206.000000
855.667969	203.000000
855.701477	198.000000
855.735046	204.000000
855.768616	193.000000
855.802185	205.000000
855.835754	225.000000
855.869324	196.000000
855.902893	205.000000
855.936401	211.000000
855.969971	206.000000
856.003540	200.000000
856.037109	210.000000
856.070618	201.000000
856.104187	204.000000
856.137695	201.000000
856.171265	194.000000
856.204834	200.000000
856.238403	211.000000
856.271912	198.000000
856.305481	206.000000
856.338989	198.000000
856.372559	204.000000
856.406128	206.000000
856.439636	205.000000
856.473145	197.000000
856.506653	215.000000
856.540222	203.000000
856.573792	209.000000
856.607300	210.000000
856.640808	197.000000
856.674377	202.000000
856.707825	234.000000
856.741394	208.000000
856.774902	201.000000
856.808472	195.000000
856.841980	208.000000
856.875488	213.000000
856.908936	199.000000
856.942505	204.000000
856.976013	201.000000
857.009521	197.000000
857.043030	207.000000
857.076477	201.000000
857.110046	209.000000
857.143555	206.000000
857.177063	210.000000
857.210571	204.000000
857.244080	196.000000
857.277527	204.000000
857.311035	207.000000
857.344543	209.000000
857.378052	205.000000
857.411499	214.000000
857.445068	215.000000
857.478516	203.000000
857.512024	203.000000
857.545532	208.000000
857.578979	205.000000
857.612427	208.000000
857.645874	200.000000
857.679382	209.000000
857.712891	207.000000
857.746399	205.000000
857.779846	206.000000
857.813354	212.000000
857.846741	199.000000
857.880249	198.000000
857.913757	202.000000
857.947266	208.000000
857.980652	205.000000
858.014160	198.000000
858.047546	199.000000
858.081055	203.000000
858.114563	210.000000
858.147949	198.000000
858.181458	204.000000
858.214844	207.000000
858.248352	193.000000
858.281799	213.000000
858.315308	216.000000
858.348694	205.000000
858.382141	210.000000
858.415588	211.000000
858.449036	215.000000
858.482483	202.000000
858.515930	199.000000
858.549377	203.000000
858.582825	210.000000
858.616211	208.000000
858.649658	209.000000
858.683105	197.000000
858.716553	202.000000
858.750000	199.000000
858.783386	205.000000
858.816833	195.000000
858.850281	208.000000
858.883728	203.000000
858.917114	205.000000
858.950562	212.000000
858.983948	217.000000
859.017395	207.000000
859.050781	201.000000
859.084167	199.000000
859.117615	196.000000
859.151062	201.000000
859.184448	203.000000
859.217834	199.000000
859.251282	205.000000
859.284668	195.000000
859.318054	194.000000
859.351440	198.000000
859.384888	212.000000
859.418274	196.000000
859.451721	198.000000
859.485046	202.000000
859.518494	207.000000
859.551819	198.000000
859.585266	204.000000
859.618652	207.000000
859.652039	197.000000
859.685425	195.000000
859.718811	198.000000
859.752197	193.000000
859.785583	213.000000
859.819031	216.000000
859.852356	209.000000
859.885742	196.000000
859.919067	208.000000
859.952454	203.000000
859.985901	208.000000
860.019287	203.000000
860.052612	0.000000
860.085999	0.000000
860.119324	0.000000
860.152710	0.000000
860.186096	0.000000
860.219421	0.000000
860.252808	0.000000
860.286133	0.000000
860.319519	0.000000
860.352905	0.000000
860.386292	0.000000
860.419617	0.000000
860.452942	0.000000
860.486267	0.000000
860.519653	0.000000
860.553040	0.000000
860.586365	0.000000
860.619690	0.000000
860.653076	0.000000
860.686340	0.000000
860.719727	0.000000
860.753113	0.000000
860.786377	0.000000
860.819763	0.000000
860.853027	0.000000
860.886414	0.000000
860.919739	0.000000
860.953125	0.000000
860.986389	0.000000
861.019714	0.000000
861.053040	0.000000
861.086365	0.000000
861.119690	0.000000
861.153076	0.000000
861.186340	0.000000
861.219666	0.000000
861.252930	0.000000
861.286316	0.000000
861.319641	0.000000
861.352905	0.000000
861.386230	0.000000
861.419495	0.000000
861.452820	0.000000
861.486145	0.000000
861.519470	0.000000
861.552734	0.000000
861.586060	0.000000
861.619324	0.000000
861.652649	0.000000
861.685974	0.000000
861.719238	0.000000
861.752563	0.000000
861.785828	0.000000
861.819092	0.000000
861.852417	0.000000
861.885742	0.000000
861.918945	0.000000
861.952271	0.000000
861.985535	0.000000
862.018799	0.000000
862.052124	0.000000
862.085449	0.000000
862.118652	0.000000
862.151978	0.000000
862.185181	0.000000
862.218506	0.000000
862.251770	0.000000
862.285034	0.000000
862.318298	0.000000
862.351562	0.000000
862.384827	0.000000
862.418091	0.000000
862.451355	0.000000
862.484619	0.000000
862.517883	0.000000
862.551086	0.000000
862.584351	0.000000
862.617676	0.000000
862.650940	0.000000
862.684143	0.000000
862.717407	0.000000
862.750610	0.000000
862.783875	0.000000
862.817139	0.000000
862.850342	0.000000
862.883606	0.000000
862.916870	0.000000
862.950073	0.000000
862.983337	0.000000
863.016602	0.000000
863.049805	0.000000
863.083069	0.000000
863.116211	0.000000
863.149475	0.000000
863.182739	0.000000
863.216003	0.000000
863.249146	0.000000
863.282410	0.000000
863.315613	0.000000
863.348816	0.000000
863.382080	0.000000
863.415222	0.000000
863.448486	0.000000
863.481689	0.000000
863.514893	0.000000
863.548157	0.000000
863.581360	0.000000
863.614502	0.000000
863.647766	0.000000
863.680908	0.000000
863.714172	0.000000
863.747375	0.000000
863.780579	0.000000
863.813721	0.000000
863.846985	0.000000
863.880127	0.000000
863.913330	0.000000
863.946533	0.000000
863.979675	0.000000
864.012939	0.000000
