Model Number: SPM-001-M   
Serial Number: 10090201
Firmware Version: 004.17.6
Exposure Time: 500000.000000us
Data Taken on: 17-08-2020 11:27:44.698
Wavelength	Amplitude
733.770752	0.000000
733.808716	0.000000
733.846619	0.000000
733.884583	0.000000
733.922546	0.000000
733.960449	0.000000
733.998413	0.000000
734.036377	0.000000
734.074219	0.000000
734.112183	0.000000
734.150085	0.000000
734.188049	0.000000
734.226013	0.000000
734.263916	0.000000
734.301819	0.000000
734.339783	0.000000
734.377686	0.000000
734.415588	0.000000
734.453552	0.000000
734.491455	0.000000
734.529419	0.000000
734.567322	0.000000
734.605225	0.000000
734.643127	0.000000
734.681091	0.000000
734.718994	0.000000
734.756897	0.000000
734.794800	0.000000
734.832703	0.000000
734.870667	0.000000
734.908508	0.000000
734.946472	0.000000
734.984375	0.000000
735.022278	0.000000
735.060181	0.000000
735.098083	0.000000
735.135986	0.000000
735.173889	0.000000
735.211792	0.000000
735.249695	0.000000
735.287598	0.000000
735.325439	0.000000
735.363403	0.000000
735.401306	0.000000
735.439148	0.000000
735.477051	0.000000
735.515015	0.000000
735.552856	0.000000
735.590759	0.000000
735.628662	0.000000
735.666504	0.000000
735.704407	0.000000
735.742310	0.000000
735.780212	0.000000
735.818115	0.000000
735.856018	0.000000
735.893860	0.000000
735.931763	0.000000
735.969604	0.000000
736.007507	0.000000
736.045410	0.000000
736.083252	0.000000
736.121094	0.000000
736.158997	0.000000
736.196838	0.000000
736.234741	0.000000
736.272644	0.000000
736.310486	0.000000
736.348389	0.000000
736.386230	0.000000
736.424072	0.000000
736.461975	0.000000
736.499878	0.000000
736.537720	0.000000
736.575562	0.000000
736.613403	0.000000
736.651306	0.000000
736.689148	0.000000
736.726990	0.000000
736.764893	0.000000
736.802734	0.000000
736.840576	0.000000
736.878418	0.000000
736.916321	0.000000
736.954102	0.000000
736.992004	0.000000
737.029846	0.000000
737.067688	0.000000
737.105530	0.000000
737.143372	0.000000
737.181213	0.000000
737.219116	0.000000
737.256897	0.000000
737.294739	0.000000
737.332642	0.000000
737.370422	0.000000
737.408325	0.000000
737.446167	0.000000
737.483948	0.000000
737.521790	0.000000
737.559692	0.000000
737.597473	0.000000
737.635315	0.000000
737.673157	0.000000
737.710999	0.000000
737.748840	0.000000
737.786621	0.000000
737.824463	0.000000
737.862305	0.000000
737.900085	0.000000
737.937927	0.000000
737.975769	0.000000
738.013550	0.000000
738.051392	0.000000
738.089233	0.000000
738.127014	0.000000
738.164856	0.000000
738.202698	0.000000
738.240479	0.000000
738.278320	0.000000
738.316162	0.000000
738.353943	0.000000
738.391785	0.000000
738.429565	0.000000
738.467407	0.000000
738.505188	0.000000
738.542969	0.000000
738.580811	0.000000
738.618652	0.000000
738.656372	0.000000
738.694214	0.000000
738.732056	0.000000
738.769836	0.000000
738.807617	0.000000
738.845459	0.000000
738.883240	0.000000
738.921021	0.000000
738.958862	0.000000
738.996582	0.000000
739.034424	0.000000
739.072205	0.000000
739.109985	0.000000
739.147827	0.000000
739.185547	0.000000
739.223389	0.000000
739.261169	0.000000
739.298889	0.000000
739.336731	0.000000
739.374512	0.000000
739.412292	0.000000
739.450073	0.000000
739.487854	0.000000
739.525635	0.000000
739.563416	0.000000
739.601135	0.000000
739.638977	0.000000
739.676758	0.000000
739.714478	0.000000
739.752258	0.000000
739.790100	0.000000
739.827820	0.000000
739.865601	0.000000
739.903381	0.000000
739.941101	0.000000
739.978882	208.000000
740.016724	200.000000
740.054443	211.000000
740.092224	201.000000
740.130005	197.000000
740.167725	197.000000
740.205505	201.000000
740.243225	211.000000
740.281006	205.000000
740.318787	194.000000
740.356506	208.000000
740.394287	203.000000
740.432068	195.000000
740.469727	200.000000
740.507507	204.000000
740.545288	203.000000
740.583008	202.000000
740.620789	203.000000
740.658569	191.000000
740.696228	203.000000
740.734009	210.000000
740.771790	188.000000
740.809509	204.000000
740.847229	197.000000
740.884949	200.000000
740.922729	197.000000
740.960449	197.000000
740.998169	195.000000
741.035950	200.000000
741.073669	204.000000
741.111389	202.000000
741.149170	214.000000
741.186890	212.000000
741.224609	205.000000
741.262329	201.000000
741.300110	212.000000
741.337769	197.000000
741.375549	196.000000
741.413208	200.000000
741.450989	197.000000
741.488708	203.000000
741.526367	201.000000
741.564148	208.000000
741.601868	208.000000
741.639526	199.000000
741.677307	208.000000
741.715027	206.000000
741.752686	197.000000
741.790466	212.000000
741.828186	209.000000
741.865845	200.000000
741.903564	195.000000
741.941345	207.000000
741.979004	201.000000
742.016724	207.000000
742.054382	204.000000
742.092102	208.000000
742.129822	194.000000
742.167480	203.000000
742.205200	200.000000
742.242920	205.000000
742.280640	209.000000
742.318359	199.000000
742.356079	195.000000
742.393738	208.000000
742.431396	201.000000
742.469116	207.000000
742.506775	189.000000
742.544495	203.000000
742.582214	204.000000
742.619873	200.000000
742.657593	206.000000
742.695251	210.000000
742.732971	199.000000
742.770630	201.000000
742.808289	199.000000
742.846008	204.000000
742.883728	201.000000
742.921326	203.000000
742.959045	199.000000
742.996765	206.000000
743.034424	204.000000
743.072083	200.000000
743.109802	197.000000
743.147400	199.000000
743.185120	209.000000
743.222839	203.000000
743.260437	208.000000
743.298157	204.000000
743.335754	195.000000
743.373474	202.000000
743.411133	199.000000
743.448792	202.000000
743.486450	206.000000
743.524170	191.000000
743.561768	207.000000
743.599487	211.000000
743.637146	217.000000
743.674744	202.000000
743.712463	202.000000
743.750122	200.000000
743.787720	200.000000
743.825439	194.000000
743.863037	197.000000
743.900696	197.000000
743.938416	230.000000
743.976013	199.000000
744.013672	212.000000
744.051331	205.000000
744.088928	214.000000
744.126587	207.000000
744.164307	207.000000
744.201904	197.000000
744.239563	207.000000
744.277222	205.000000
744.314819	206.000000
744.352478	208.000000
744.390137	209.000000
744.427734	202.000000
744.465393	201.000000
744.502991	197.000000
744.540649	204.000000
744.578308	203.000000
744.615906	199.000000
744.653564	194.000000
744.691223	208.000000
744.728821	196.000000
744.766418	204.000000
744.804077	203.000000
744.841675	202.000000
744.879333	198.000000
744.916992	198.000000
744.954529	200.000000
744.992187	212.000000
745.029785	201.000000
745.067444	199.000000
745.105042	201.000000
745.142639	206.000000
745.180298	212.000000
745.217896	200.000000
745.255493	199.000000
745.293152	206.000000
745.330750	209.000000
745.368347	206.000000
745.405945	208.000000
745.443604	203.000000
745.481140	206.000000
745.518799	199.000000
745.556396	203.000000
745.593994	208.000000
745.631592	200.000000
745.669189	195.000000
745.706787	203.000000
745.744385	198.000000
745.781982	206.000000
745.819580	198.000000
745.857178	205.000000
745.894775	206.000000
745.932373	201.000000
745.969971	206.000000
746.007568	197.000000
746.045166	207.000000
746.082764	209.000000
746.120300	207.000000
746.157898	210.000000
746.195557	205.000000
746.233093	199.000000
746.270691	207.000000
746.308228	205.000000
746.345825	207.000000
746.383423	205.000000
746.420959	199.000000
746.458557	202.000000
746.496155	199.000000
746.533691	201.000000
746.571289	200.000000
746.608887	202.000000
746.646423	205.000000
746.684021	204.000000
746.721619	201.000000
746.759155	202.000000
746.796753	201.000000
746.834351	201.000000
746.871826	203.000000
746.909424	213.000000
746.946960	205.000000
746.984558	203.000000
747.022156	198.000000
747.059631	202.000000
747.097229	206.000000
747.134827	198.000000
747.172363	211.000000
747.209900	200.000000
747.247498	199.000000
747.285034	207.000000
747.322571	214.000000
747.360168	201.000000
747.397644	194.000000
747.435242	207.000000
747.472778	213.000000
747.510315	198.000000
747.547913	206.000000
747.585388	211.000000
747.622925	202.000000
747.660522	197.000000
747.697998	199.000000
747.735596	202.000000
747.773132	203.000000
747.810669	202.000000
747.848206	206.000000
747.885742	200.000000
747.923279	194.000000
747.960815	207.000000
747.998352	204.000000
748.035889	206.000000
748.073425	211.000000
748.110901	201.000000
748.148437	198.000000
748.185974	205.000000
748.223511	214.000000
748.261047	205.000000
748.298584	200.000000
748.336060	207.000000
748.373596	205.000000
748.411133	214.000000
748.448608	200.000000
748.486145	213.000000
748.523682	208.000000
748.561218	207.000000
748.598755	200.000000
748.636292	206.000000
748.673706	203.000000
748.711243	210.000000
748.748718	203.000000
748.786255	202.000000
748.823792	203.000000
748.861267	196.000000
748.898804	203.000000
748.936340	206.000000
748.973816	195.000000
749.011292	210.000000
749.048828	201.000000
749.086304	205.000000
749.123840	216.000000
749.161316	198.000000
749.198792	211.000000
749.236328	212.000000
749.273743	205.000000
749.311279	199.000000
749.348816	210.000000
749.386230	202.000000
749.423767	189.000000
749.461304	207.000000
749.498718	204.000000
749.536255	211.000000
749.573730	222.000000
749.611206	207.000000
749.648682	201.000000
749.686218	199.000000
749.723633	211.000000
749.761169	199.000000
749.798645	199.000000
749.836060	202.000000
749.873596	198.000000
749.911011	199.000000
749.948547	212.000000
749.986023	202.000000
750.023437	208.000000
750.060913	197.000000
750.098450	195.000000
750.135864	200.000000
750.173340	204.000000
750.210815	202.000000
750.248291	196.000000
750.285767	203.000000
750.323242	212.000000
750.360657	205.000000
750.398132	200.000000
750.435608	206.000000
750.473022	203.000000
750.510498	196.000000
750.547974	199.000000
750.585449	198.000000
750.622925	194.000000
750.660339	206.000000
750.697815	208.000000
750.735291	202.000000
750.772644	210.000000
750.810120	204.000000
750.847595	204.000000
750.885010	196.000000
750.922485	217.000000
750.959961	204.000000
750.997375	211.000000
751.034851	211.000000
751.072266	211.000000
751.109680	189.000000
751.147156	208.000000
751.184570	209.000000
751.221985	207.000000
751.259460	195.000000
751.296875	198.000000
751.334290	202.000000
751.371765	206.000000
751.409180	209.000000
751.446594	207.000000
751.484070	211.000000
751.521423	204.000000
751.558899	206.000000
751.596375	208.000000
751.633728	213.000000
751.671204	215.000000
751.708618	201.000000
751.746033	199.000000
751.783447	195.000000
751.820801	197.000000
751.858276	211.000000
751.895691	196.000000
751.933105	201.000000
751.970520	201.000000
752.007935	198.000000
752.045349	203.000000
752.082764	206.000000
752.120178	202.000000
752.157532	197.000000
752.195007	201.000000
752.232422	207.000000
752.269775	206.000000
752.307190	209.000000
752.344543	196.000000
752.382019	206.000000
752.419434	203.000000
752.456787	203.000000
752.494202	207.000000
752.531616	203.000000
752.568970	208.000000
752.606384	206.000000
752.643799	206.000000
752.681152	215.000000
752.718567	207.000000
752.755981	197.000000
752.793335	203.000000
752.830750	191.000000
752.868164	213.000000
752.905518	196.000000
752.942932	209.000000
752.980225	197.000000
753.017639	207.000000
753.055054	204.000000
753.092407	209.000000
753.129822	203.000000
753.167175	213.000000
753.204529	201.000000
753.241943	199.000000
753.279358	193.000000
753.316650	208.000000
753.354065	202.000000
753.391479	211.000000
753.428772	213.000000
753.466187	207.000000
753.503479	196.000000
753.540894	198.000000
753.578308	194.000000
753.615601	199.000000
753.653015	198.000000
753.690369	204.000000
753.727722	196.000000
753.765076	198.000000
753.802490	197.000000
753.839783	194.000000
753.877136	201.000000
753.914551	221.000000
753.951843	199.000000
753.989258	210.000000
754.026611	204.000000
754.063904	206.000000
754.101257	198.000000
754.138611	192.000000
754.175964	207.000000
754.213318	214.000000
754.250610	192.000000
754.288025	202.000000
754.325378	196.000000
754.362671	210.000000
754.400024	204.000000
754.437378	211.000000
754.474670	214.000000
754.512085	200.000000
754.549438	203.000000
754.586731	198.000000
754.624084	204.000000
754.661438	195.000000
754.698730	207.000000
754.736084	201.000000
754.773376	201.000000
754.810730	202.000000
754.848083	200.000000
754.885315	204.000000
754.922668	198.000000
754.960022	195.000000
754.997314	212.000000
755.034668	200.000000
755.072021	205.000000
755.109253	197.000000
755.146606	209.000000
755.183960	199.000000
755.221252	212.000000
755.258545	211.000000
755.295898	216.000000
755.333191	216.000000
755.370544	208.000000
755.407776	207.000000
755.445129	208.000000
755.482422	209.000000
755.519714	205.000000
755.557068	198.000000
755.594360	196.000000
755.631653	214.000000
755.668945	216.000000
755.706299	207.000000
755.743530	219.000000
755.780884	218.000000
755.818176	213.000000
755.855408	215.000000
755.892761	205.000000
755.930054	208.000000
755.967346	211.000000
756.004639	213.000000
756.041870	204.000000
756.079224	213.000000
756.116516	203.000000
756.153748	214.000000
756.191040	217.000000
756.228394	213.000000
756.265625	201.000000
756.302917	206.000000
756.340210	206.000000
756.377441	213.000000
756.414795	217.000000
756.452087	212.000000
756.489319	195.000000
756.526611	213.000000
756.563843	209.000000
756.601135	218.000000
756.638428	213.000000
756.675659	206.000000
756.712952	213.000000
756.750244	217.000000
756.787476	206.000000
756.824768	214.000000
756.862061	211.000000
756.899292	256.000000
756.936584	210.000000
756.973816	227.000000
757.011047	228.000000
757.048340	213.000000
757.085632	214.000000
757.122864	228.000000
757.160156	204.000000
757.197327	218.000000
757.234619	222.000000
757.271912	213.000000
757.309082	222.000000
757.346375	209.000000
757.383667	217.000000
757.420837	215.000000
757.458130	218.000000
757.495422	212.000000
757.532593	218.000000
757.569885	208.000000
757.607117	207.000000
757.644348	215.000000
757.681580	231.000000
757.718811	198.000000
757.756042	219.000000
757.793335	209.000000
757.830505	219.000000
757.867798	216.000000
757.905029	211.000000
757.942200	217.000000
757.979492	212.000000
758.016724	209.000000
758.053894	215.000000
758.091187	236.000000
758.128418	215.000000
758.165588	211.000000
758.202820	233.000000
758.240112	217.000000
758.277283	225.000000
758.314514	217.000000
758.351685	218.000000
758.388916	224.000000
758.426147	230.000000
758.463379	230.000000
758.500610	225.000000
758.537842	221.000000
758.575012	230.000000
758.612244	218.000000
758.649475	234.000000
758.686646	214.000000
758.723877	231.000000
758.761108	233.000000
758.798279	221.000000
758.835510	225.000000
758.872742	232.000000
758.909851	227.000000
758.947083	225.000000
758.984253	226.000000
759.021484	230.000000
759.058716	227.000000
759.095886	225.000000
759.133057	227.000000
759.170288	222.000000
759.207458	225.000000
759.244690	233.000000
759.281860	234.000000
759.319031	223.000000
759.356262	225.000000
759.393433	219.000000
759.430603	229.000000
759.467773	222.000000
759.505005	233.000000
759.542175	233.000000
759.579346	227.000000
759.616516	219.000000
759.653687	230.000000
759.690918	224.000000
759.728027	225.000000
759.765259	228.000000
759.802429	229.000000
759.839539	227.000000
759.876770	239.000000
759.913940	243.000000
759.951111	230.000000
759.988281	232.000000
760.025452	226.000000
760.062561	221.000000
760.099792	242.000000
760.136963	235.000000
760.174072	230.000000
760.211243	222.000000
760.248413	226.000000
760.285583	227.000000
760.322754	246.000000
760.359863	243.000000
760.397034	232.000000
760.434204	234.000000
760.471375	233.000000
760.508545	228.000000
760.545715	229.000000
760.582825	231.000000
760.619995	236.000000
760.657166	232.000000
760.694275	235.000000
760.731445	237.000000
760.768555	239.000000
760.805664	237.000000
760.842834	234.000000
760.879944	239.000000
760.917114	239.000000
760.954285	233.000000
760.991394	229.000000
761.028564	247.000000
761.065674	241.000000
761.102783	232.000000
761.139954	240.000000
761.177124	241.000000
761.214172	243.000000
761.251343	240.000000
761.288452	234.000000
761.325562	244.000000
761.362732	237.000000
761.399841	238.000000
761.436951	245.000000
761.474121	241.000000
761.511169	241.000000
761.548340	253.000000
761.585449	252.000000
761.622559	251.000000
761.659668	246.000000
761.696838	250.000000
761.733887	242.000000
761.771057	251.000000
761.808167	247.000000
761.845276	254.000000
761.882385	266.000000
761.919434	253.000000
761.956604	268.000000
761.993713	247.000000
762.030762	265.000000
762.067871	251.000000
762.105042	252.000000
762.142090	260.000000
762.179199	254.000000
762.216309	264.000000
762.253418	270.000000
762.290527	263.000000
762.327637	268.000000
762.364685	251.000000
762.401794	263.000000
762.438904	258.000000
762.475952	253.000000
762.513062	252.000000
762.550110	248.000000
762.587219	262.000000
762.624329	266.000000
762.661377	259.000000
762.698486	268.000000
762.735596	266.000000
762.772644	258.000000
762.809753	254.000000
762.846863	261.000000
762.883911	265.000000
762.921021	270.000000
762.958069	261.000000
762.995117	273.000000
763.032227	273.000000
763.069336	259.000000
763.106323	256.000000
763.143433	265.000000
763.180481	266.000000
763.217590	272.000000
763.254639	264.000000
763.291687	263.000000
763.328735	273.000000
763.365845	262.000000
763.402893	267.000000
763.439941	273.000000
763.477051	276.000000
763.514038	277.000000
763.551147	273.000000
763.588196	272.000000
763.625244	276.000000
763.662292	280.000000
763.699402	283.000000
763.736389	276.000000
763.773499	289.000000
763.810486	280.000000
763.847534	278.000000
763.884644	280.000000
763.921631	280.000000
763.958679	289.000000
763.995728	283.000000
764.032776	287.000000
764.069824	272.000000
764.106873	285.000000
764.143860	293.000000
764.180969	268.000000
764.218018	291.000000
764.255005	280.000000
764.292053	284.000000
764.329102	296.000000
764.366089	298.000000
764.403137	291.000000
764.440125	285.000000
764.477173	296.000000
764.514221	299.000000
764.551208	290.000000
764.588257	282.000000
764.625305	291.000000
764.662292	296.000000
764.699341	303.000000
764.736389	296.000000
764.773376	316.000000
764.810425	305.000000
764.847473	310.000000
764.884399	302.000000
764.921448	313.000000
764.958435	313.000000
764.995483	300.000000
765.032532	315.000000
765.069458	301.000000
765.106506	301.000000
765.143555	298.000000
765.180481	300.000000
765.217529	315.000000
765.254578	299.000000
765.291504	316.000000
765.328552	310.000000
765.365540	307.000000
765.402527	323.000000
765.439575	310.000000
765.476501	303.000000
765.513550	301.000000
765.550537	312.000000
765.587463	317.000000
765.624512	304.000000
765.661499	298.000000
765.698486	321.000000
765.735474	303.000000
765.772461	305.000000
765.809448	323.000000
765.846436	313.000000
765.883423	323.000000
765.920410	320.000000
765.957397	313.000000
765.994385	320.000000
766.031311	334.000000
766.068359	321.000000
766.105286	322.000000
766.142273	325.000000
766.179260	323.000000
766.216187	316.000000
766.253174	319.000000
766.290161	324.000000
766.327148	327.000000
766.364136	327.000000
766.401123	348.000000
766.438049	325.000000
766.475037	340.000000
766.512024	339.000000
766.548950	349.000000
766.585937	355.000000
766.622864	341.000000
766.659790	345.000000
766.696777	333.000000
766.733704	345.000000
766.770691	331.000000
766.807678	353.000000
766.844604	351.000000
766.881531	351.000000
766.918518	354.000000
766.955444	359.000000
766.992432	350.000000
767.029358	363.000000
767.066284	361.000000
767.103271	359.000000
767.140198	382.000000
767.177124	370.000000
767.214050	359.000000
767.251038	371.000000
767.287964	358.000000
767.324890	361.000000
767.361816	370.000000
767.398743	373.000000
767.435730	369.000000
767.472595	377.000000
767.509583	379.000000
767.546509	372.000000
767.583374	377.000000
767.620361	368.000000
767.657288	370.000000
767.694214	374.000000
767.731140	374.000000
767.768066	382.000000
767.804993	388.000000
767.841919	383.000000
767.878845	385.000000
767.915710	390.000000
767.952698	387.000000
767.989563	387.000000
768.026489	394.000000
768.063416	384.000000
768.100281	383.000000
768.137207	401.000000
768.174133	399.000000
768.211060	401.000000
768.247986	402.000000
768.284912	392.000000
768.321777	400.000000
768.358704	385.000000
768.395630	395.000000
768.432495	397.000000
768.469421	409.000000
768.506348	407.000000
768.543152	414.000000
768.580078	406.000000
768.616943	414.000000
768.653870	414.000000
768.690796	413.000000
768.727661	408.000000
768.764587	412.000000
768.801453	400.000000
768.838318	417.000000
768.875244	417.000000
768.912109	433.000000
768.948975	409.000000
768.985901	421.000000
769.022766	410.000000
769.059631	415.000000
769.096558	415.000000
769.133362	419.000000
769.170288	422.000000
769.207214	416.000000
769.244019	427.000000
769.280945	425.000000
769.317810	439.000000
769.354675	433.000000
769.391541	444.000000
769.428406	436.000000
769.465271	457.000000
769.502136	437.000000
769.539062	447.000000
769.575867	444.000000
769.612732	448.000000
769.649597	454.000000
769.686462	457.000000
769.723328	448.000000
769.760193	447.000000
769.797058	454.000000
769.833923	462.000000
769.870728	457.000000
769.907593	464.000000
769.944519	464.000000
769.981323	467.000000
770.018188	464.000000
770.055054	462.000000
770.091858	464.000000
770.128723	473.000000
770.165588	474.000000
770.202393	467.000000
770.239258	479.000000
770.276062	468.000000
770.312927	471.000000
770.349792	480.000000
770.386597	473.000000
770.423462	487.000000
770.460327	498.000000
770.497131	483.000000
770.533997	478.000000
770.570862	490.000000
770.607605	487.000000
770.644470	494.000000
770.681335	494.000000
770.718140	492.000000
770.754944	487.000000
770.791809	487.000000
770.828613	479.000000
770.865479	490.000000
770.902222	499.000000
770.939087	492.000000
770.975952	476.000000
771.012695	499.000000
771.049561	510.000000
771.086365	494.000000
771.123169	489.000000
771.159973	496.000000
771.196838	504.000000
771.233582	499.000000
771.270447	505.000000
771.307251	515.000000
771.344055	511.000000
771.380859	510.000000
771.417664	505.000000
771.454468	520.000000
771.491272	522.000000
771.528076	513.000000
771.564880	515.000000
771.601685	521.000000
771.638428	513.000000
771.675293	512.000000
771.712097	507.000000
771.748840	522.000000
771.785645	511.000000
771.822449	525.000000
771.859253	536.000000
771.896057	527.000000
771.932861	548.000000
771.969604	538.000000
772.006409	523.000000
772.043213	548.000000
772.079956	546.000000
772.116760	539.000000
772.153503	550.000000
772.190308	561.000000
772.227112	550.000000
772.263855	545.000000
772.300659	549.000000
772.337463	561.000000
772.374207	557.000000
772.411011	555.000000
772.447754	553.000000
772.484497	567.000000
772.521301	558.000000
772.558105	567.000000
772.594849	568.000000
772.631592	583.000000
772.668396	570.000000
772.705139	571.000000
772.741882	574.000000
772.778625	589.000000
772.815430	603.000000
772.852173	602.000000
772.888916	599.000000
772.925720	599.000000
772.962463	607.000000
772.999207	605.000000
773.035950	614.000000
773.072754	620.000000
773.109436	609.000000
773.146240	609.000000
773.182922	606.000000
773.219727	620.000000
773.256470	619.000000
773.293152	629.000000
773.329956	627.000000
773.366699	623.000000
773.403381	613.000000
773.440186	618.000000
773.476929	626.000000
773.513611	639.000000
773.550354	636.000000
773.587158	627.000000
773.623840	624.000000
773.660583	640.000000
773.697327	647.000000
773.734009	650.000000
773.770813	652.000000
773.807495	647.000000
773.844238	639.000000
773.880981	650.000000
773.917664	641.000000
773.954407	667.000000
773.991150	670.000000
774.027832	673.000000
774.064575	665.000000
774.101318	665.000000
774.138000	666.000000
774.174744	674.000000
774.211487	688.000000
774.248108	666.000000
774.284851	675.000000
774.321594	682.000000
774.358276	686.000000
774.395020	690.000000
774.431702	718.000000
774.468384	703.000000
774.505127	690.000000
774.541809	693.000000
774.578491	691.000000
774.615234	698.000000
774.651917	704.000000
774.688599	708.000000
774.725342	715.000000
774.762024	718.000000
774.798706	705.000000
774.835449	707.000000
774.872070	732.000000
774.908813	724.000000
774.945496	717.000000
774.982178	730.000000
775.018860	705.000000
775.055542	713.000000
775.092224	721.000000
775.128967	740.000000
775.165588	759.000000
775.202271	737.000000
775.239014	738.000000
775.275635	736.000000
775.312317	736.000000
775.349060	747.000000
775.385681	766.000000
775.422363	756.000000
775.459045	760.000000
775.495667	741.000000
775.532410	755.000000
775.569092	769.000000
775.605713	775.000000
775.642395	776.000000
775.679016	753.000000
775.715698	755.000000
775.752380	750.000000
775.789001	763.000000
775.825684	766.000000
775.862366	782.000000
775.898987	799.000000
775.935669	760.000000
775.972351	772.000000
776.008972	779.000000
776.045654	786.000000
776.082336	788.000000
776.118958	784.000000
776.155640	785.000000
776.192322	781.000000
776.228882	779.000000
776.265564	793.000000
776.302185	799.000000
776.338867	798.000000
776.375488	788.000000
776.412109	790.000000
776.448792	802.000000
776.485413	815.000000
776.522034	814.000000
776.558716	796.000000
776.595337	802.000000
776.631958	799.000000
776.668579	784.000000
776.705261	793.000000
776.741882	804.000000
776.778503	808.000000
776.815186	805.000000
776.851746	811.000000
776.888367	786.000000
776.924988	797.000000
776.961609	797.000000
776.998291	805.000000
777.034851	795.000000
777.071472	803.000000
777.108154	799.000000
777.144714	814.000000
777.181335	838.000000
777.218018	817.000000
777.254578	830.000000
777.291199	843.000000
777.327759	830.000000
777.364380	843.000000
777.401062	867.000000
777.437622	886.000000
777.474243	869.000000
777.510864	887.000000
777.547424	873.000000
777.584045	879.000000
777.620667	875.000000
777.657227	872.000000
777.693848	867.000000
777.730469	902.000000
777.767029	878.000000
777.803650	886.000000
777.840271	876.000000
777.876831	874.000000
777.913452	888.000000
777.950012	883.000000
777.986633	867.000000
778.023193	870.000000
778.059753	861.000000
778.096375	863.000000
778.132996	879.000000
778.169556	887.000000
778.206116	890.000000
778.242737	889.000000
778.279297	893.000000
778.315857	889.000000
778.352478	898.000000
778.389038	917.000000
778.425598	912.000000
778.462219	925.000000
778.498718	925.000000
778.535339	930.000000
778.571838	931.000000
778.608459	929.000000
778.645020	920.000000
778.681580	931.000000
778.718140	936.000000
778.754761	921.000000
778.791260	935.000000
778.827881	942.000000
778.864441	925.000000
778.900940	933.000000
778.937561	950.000000
778.974121	955.000000
779.010620	933.000000
779.047241	941.000000
779.083801	951.000000
779.120300	971.000000
779.156860	998.000000
779.193359	992.000000
779.229980	1006.000000
779.266541	1006.000000
779.303040	1000.000000
779.339600	999.000000
779.376160	995.000000
779.412659	1001.000000
779.449219	1005.000000
779.485779	1011.000000
779.522278	996.000000
779.558838	999.000000
779.595398	1004.000000
779.631897	1007.000000
779.668457	1008.000000
779.705017	1019.000000
779.741516	1009.000000
779.778076	999.000000
779.814575	1002.000000
779.851074	1003.000000
779.887634	1011.000000
779.924133	1020.000000
779.960693	993.000000
779.997253	1011.000000
780.033691	1018.000000
780.070251	1021.000000
780.106812	1053.000000
780.143250	1058.000000
780.179810	1045.000000
780.216370	1042.000000
780.252808	1041.000000
780.289368	1038.000000
780.325867	1043.000000
780.362366	1073.000000
780.398865	1094.000000
780.435364	1084.000000
780.471863	1077.000000
780.508423	1061.000000
780.544861	1075.000000
780.581421	1090.000000
780.617920	1069.000000
780.654419	1074.000000
780.690918	1078.000000
780.727417	1083.000000
780.763916	1097.000000
780.800415	1113.000000
780.836914	1110.000000
780.873352	1138.000000
780.909912	1109.000000
780.946411	1107.000000
780.982849	1103.000000
781.019348	1119.000000
781.055786	1110.000000
781.092346	1106.000000
781.128845	1121.000000
781.165283	1116.000000
781.201782	1106.000000
781.238281	1124.000000
781.274719	1123.000000
781.311218	1135.000000
781.347717	1160.000000
781.384155	1135.000000
781.420654	1136.000000
781.457092	1152.000000
781.493591	1143.000000
781.530090	1148.000000
781.566528	1158.000000
781.602966	1139.000000
781.639465	1149.000000
781.675903	1129.000000
781.712402	1126.000000
781.748901	1125.000000
781.785278	1131.000000
781.821777	1136.000000
781.858276	1109.000000
781.894714	1118.000000
781.931152	1120.000000
781.967651	1117.000000
782.004089	1115.000000
782.040527	1128.000000
782.076965	1115.000000
782.113403	1103.000000
782.149902	1109.000000
782.186340	1121.000000
782.222778	1141.000000
782.259277	1118.000000
782.295654	1135.000000
782.332092	1127.000000
782.368591	1136.000000
782.404968	1144.000000
782.441467	1170.000000
782.477905	1162.000000
782.514282	1164.000000
782.550781	1170.000000
782.587219	1165.000000
782.623596	1174.000000
782.660095	1201.000000
782.696472	1185.000000
782.732910	1186.000000
782.769348	1163.000000
782.805786	1177.000000
782.842224	1150.000000
782.878662	1140.000000
782.915039	1133.000000
782.951477	1134.000000
782.987915	1083.000000
783.024292	1049.000000
783.060730	1013.000000
783.097168	964.000000
783.133545	920.000000
783.169983	892.000000
783.206421	851.000000
783.242798	812.000000
783.279236	782.000000
783.315613	786.000000
783.352051	791.000000
783.388489	789.000000
783.424866	774.000000
783.461304	793.000000
783.497681	816.000000
783.534058	820.000000
783.570496	837.000000
783.606934	859.000000
783.643250	884.000000
783.679687	895.000000
783.716125	917.000000
783.752441	942.000000
783.788879	982.000000
783.825317	1034.000000
783.861633	1069.000000
783.898071	1079.000000
783.934448	1126.000000
783.970825	1170.000000
784.007263	1170.000000
784.043579	1228.000000
784.080017	1237.000000
784.116394	1232.000000
784.152710	1228.000000
784.189148	1247.000000
784.225525	1268.000000
784.261902	1270.000000
784.298279	1261.000000
784.334656	1250.000000
784.371033	1216.000000
784.407410	1225.000000
784.443787	1223.000000
784.480164	1237.000000
784.516541	1207.000000
784.552856	1222.000000
784.589233	1200.000000
784.625610	1183.000000
784.661987	1222.000000
784.698364	1237.000000
784.734741	1253.000000
784.771057	1244.000000
784.807434	1274.000000
784.843811	1260.000000
784.880127	1232.000000
784.916504	1275.000000
784.952881	1307.000000
784.989197	1322.000000
785.025574	1336.000000
785.061951	1345.000000
785.098267	1364.000000
785.134644	1381.000000
785.170959	1392.000000
785.207275	1435.000000
785.243652	1436.000000
785.279968	1413.000000
785.316345	1371.000000
785.352722	1347.000000
785.388977	1359.000000
785.425354	1368.000000
785.461731	1338.000000
785.498047	1328.000000
785.534363	1278.000000
785.570679	1252.000000
785.606995	1242.000000
785.643372	1240.000000
785.679687	1249.000000
785.716003	1242.000000
785.752380	1221.000000
785.788635	1212.000000
785.825012	1211.000000
785.861328	1219.000000
785.897644	1241.000000
785.933960	1289.000000
785.970337	1304.000000
786.006592	1326.000000
786.042908	1353.000000
786.079285	1381.000000
786.115540	1428.000000
786.151855	1459.000000
786.188171	1487.000000
786.224487	1524.000000
786.260803	1519.000000
786.297119	1513.000000
786.333435	1517.000000
786.369751	1535.000000
786.406006	1533.000000
786.442322	1495.000000
786.478638	1479.000000
786.514954	1442.000000
786.551270	1415.000000
786.587585	1395.000000
786.623840	1379.000000
786.660156	1359.000000
786.696472	1325.000000
786.732727	1283.000000
786.769043	1271.000000
786.805298	1258.000000
786.841614	1269.000000
786.877930	1278.000000
786.914124	1298.000000
786.950439	1306.000000
786.986755	1307.000000
787.023010	1322.000000
787.059326	1335.000000
787.095642	1374.000000
787.131836	1418.000000
787.168152	1409.000000
787.204468	1435.000000
787.240723	1463.000000
787.276978	1465.000000
787.313293	1489.000000
787.349548	1539.000000
787.385803	1535.000000
787.422058	1524.000000
787.458313	1518.000000
787.494629	1500.000000
787.530823	1487.000000
787.567139	1470.000000
787.603455	1469.000000
787.639648	1448.000000
787.675903	1424.000000
787.712219	1406.000000
787.748413	1380.000000
787.784729	1361.000000
787.820984	1360.000000
787.857178	1363.000000
787.893494	1365.000000
787.929749	1335.000000
787.965942	1333.000000
788.002258	1362.000000
788.038452	1361.000000
788.074707	1356.000000
788.110962	1381.000000
788.147217	1371.000000
788.183472	1363.000000
788.219727	1366.000000
788.255920	1377.000000
788.292175	1393.000000
788.328430	1424.000000
788.364624	1429.000000
788.400879	1438.000000
788.437134	1424.000000
788.473328	1431.000000
788.509583	1417.000000
788.545837	1436.000000
788.582031	1441.000000
788.618286	1460.000000
788.654480	1440.000000
788.690735	1438.000000
788.726990	1455.000000
788.763184	1449.000000
788.799377	1458.000000
788.835632	1459.000000
788.871826	1481.000000
788.908081	1461.000000
788.944336	1450.000000
788.980469	1485.000000
789.016724	1460.000000
789.052979	1472.000000
789.089111	1461.000000
789.125366	1472.000000
789.161621	1441.000000
789.197754	1439.000000
789.234009	1422.000000
789.270142	1419.000000
789.306396	1437.000000
789.342590	1441.000000
789.378784	1394.000000
789.414978	1384.000000
789.451233	1380.000000
789.487366	1381.000000
789.523621	1402.000000
789.559814	1405.000000
789.595947	1410.000000
789.632202	1410.000000
789.668335	1411.000000
789.704529	1407.000000
789.740784	1425.000000
789.776917	1447.000000
789.813110	1457.000000
789.849304	1468.000000
789.885498	1460.000000
789.921692	1466.000000
789.957886	1480.000000
789.994019	1465.000000
790.030212	1475.000000
790.066406	1506.000000
790.102539	1507.000000
790.138733	1485.000000
790.174927	1451.000000
790.211060	1463.000000
790.247253	1463.000000
790.283386	1475.000000
790.319580	1477.000000
790.355774	1431.000000
790.391907	1323.000000
790.428101	1133.000000
790.464294	935.000000
790.500427	814.000000
790.536621	777.000000
790.572754	845.000000
790.608887	951.000000
790.645081	1010.000000
790.681274	1047.000000
790.717346	1106.000000
790.753540	1138.000000
790.789734	1162.000000
790.825867	1164.000000
790.862000	1184.000000
790.898132	1211.000000
790.934265	1226.000000
790.970459	1240.000000
791.006592	1281.000000
791.042725	1319.000000
791.078918	1314.000000
791.114990	1310.000000
791.151184	1309.000000
791.187317	1331.000000
791.223389	1365.000000
791.259583	1374.000000
791.295715	1388.000000
791.331848	1389.000000
791.367981	1404.000000
791.404114	1390.000000
791.440247	1413.000000
791.476379	1409.000000
791.512451	1420.000000
791.548584	1427.000000
791.584778	1405.000000
791.620850	1424.000000
791.656982	1401.000000
791.693115	1419.000000
791.729187	1421.000000
791.765381	1444.000000
791.801514	1444.000000
791.837585	1448.000000
791.873718	1428.000000
791.909851	1449.000000
791.945923	1467.000000
791.982056	1481.000000
792.018188	1478.000000
792.054260	1487.000000
792.090393	1480.000000
792.126465	1447.000000
792.162598	1456.000000
792.198669	1476.000000
792.234741	1487.000000
792.270874	1468.000000
792.307007	1451.000000
792.343079	1438.000000
792.379150	1428.000000
792.415283	1407.000000
792.451355	1445.000000
792.487488	1436.000000
792.523560	1442.000000
792.559631	1425.000000
792.595764	1381.000000
792.631836	1390.000000
792.667908	1425.000000
792.703979	1417.000000
792.740051	1439.000000
792.776184	1430.000000
792.812256	1428.000000
792.848328	1407.000000
792.884399	1386.000000
792.920471	1412.000000
792.956543	1443.000000
792.992615	1446.000000
793.028748	1427.000000
793.064758	1416.000000
793.100830	1416.000000
793.136963	1429.000000
793.172974	1441.000000
793.209045	1426.000000
793.245178	1441.000000
793.281189	1440.000000
793.317261	1427.000000
793.353271	1413.000000
793.389404	1420.000000
793.425476	1406.000000
793.461487	1401.000000
793.497559	1406.000000
793.533630	1403.000000
793.569641	1361.000000
793.605713	1361.000000
793.641785	1367.000000
793.677795	1389.000000
793.713867	1374.000000
793.749878	1406.000000
793.785950	1425.000000
793.822021	1402.000000
793.858032	1358.000000
793.894104	1399.000000
793.930176	1399.000000
793.966187	1429.000000
794.002258	1408.000000
794.038269	1423.000000
794.074280	1388.000000
794.110352	1423.000000
794.146423	1422.000000
794.182373	1430.000000
794.218445	1425.000000
794.254517	1424.000000
794.290466	1397.000000
794.326538	1365.000000
794.362549	1374.000000
794.398560	1368.000000
794.434631	1362.000000
794.470581	1354.000000
794.506653	1337.000000
794.542664	1330.000000
794.578674	1305.000000
794.614685	1317.000000
794.650757	1320.000000
794.686707	1331.000000
794.722778	1337.000000
794.758789	1347.000000
794.794739	1344.000000
794.830811	1353.000000
794.866821	1367.000000
794.902771	1385.000000
794.938843	1381.000000
794.974792	1388.000000
795.010803	1402.000000
795.046814	1367.000000
795.082825	1354.000000
795.118835	1368.000000
795.154846	1359.000000
795.190796	1385.000000
795.226807	1364.000000
795.262817	1368.000000
795.298767	1336.000000
795.334778	1325.000000
795.370850	1327.000000
795.406799	1338.000000
795.442810	1319.000000
795.478821	1325.000000
795.514709	1310.000000
795.550720	1303.000000
795.586670	1279.000000
795.622681	1292.000000
795.658691	1322.000000
795.694641	1330.000000
795.730652	1331.000000
795.766663	1322.000000
795.802551	1316.000000
795.838562	1336.000000
795.874573	1356.000000
795.910522	1362.000000
795.946472	1360.000000
795.982483	1352.000000
796.018433	1334.000000
796.054382	1317.000000
796.090393	1315.000000
796.126282	1327.000000
796.162292	1310.000000
796.198242	1308.000000
796.234192	1314.000000
796.270203	1282.000000
796.306091	1280.000000
796.342041	1296.000000
796.378052	1290.000000
796.413940	1310.000000
796.449951	1317.000000
796.485901	1293.000000
796.521790	1289.000000
796.557800	1287.000000
796.593689	1273.000000
796.629639	1312.000000
796.665649	1322.000000
796.701599	1316.000000
796.737488	1317.000000
796.773437	1299.000000
796.809387	1309.000000
796.845337	1342.000000
796.881287	1349.000000
796.917175	1348.000000
796.953125	1347.000000
796.989075	1322.000000
797.024963	1300.000000
797.060913	1293.000000
797.096863	1306.000000
797.132751	1329.000000
797.168701	1303.000000
797.204590	1297.000000
797.240540	1254.000000
797.276489	1241.000000
797.312439	1251.000000
797.348328	1261.000000
797.384277	1284.000000
797.420166	1282.000000
797.456055	1260.000000
797.492004	1244.000000
797.527893	1212.000000
797.563843	1256.000000
797.599731	1265.000000
797.635620	1265.000000
797.671570	1270.000000
797.707520	1254.000000
797.743347	1249.000000
797.779297	1252.000000
797.815125	1246.000000
797.851074	1275.000000
797.887024	1290.000000
797.922913	1282.000000
797.958801	1269.000000
797.994690	1228.000000
798.030579	1239.000000
798.066467	1248.000000
798.102356	1252.000000
798.138245	1255.000000
798.174133	1245.000000
798.210083	1233.000000
798.245911	1230.000000
798.281799	1219.000000
798.317749	1215.000000
798.353577	1253.000000
798.389465	1253.000000
798.425293	1239.000000
798.461243	1209.000000
798.497131	1215.000000
798.532959	1209.000000
798.568848	1232.000000
798.604736	1238.000000
798.640564	1219.000000
798.676453	1216.000000
798.712402	1186.000000
798.748230	1192.000000
798.784119	1201.000000
798.820007	1209.000000
798.855835	1212.000000
798.891724	1217.000000
798.927551	1198.000000
798.963379	1183.000000
798.999268	1177.000000
799.035095	1190.000000
799.070984	1182.000000
799.106873	1205.000000
799.142700	1215.000000
799.178528	1187.000000
799.214417	1174.000000
799.250244	1189.000000
799.286133	1186.000000
799.321960	1201.000000
799.357788	1198.000000
799.393677	1175.000000
799.429504	1177.000000
799.465332	1157.000000
799.501221	1166.000000
799.537048	1185.000000
799.572876	1209.000000
799.608704	1194.000000
799.644531	1182.000000
799.680359	1173.000000
799.716248	1193.000000
799.752014	1189.000000
799.787903	1191.000000
799.823730	1173.000000
799.859558	1166.000000
799.895386	1159.000000
799.931213	1135.000000
799.967041	1132.000000
800.002869	1150.000000
800.038696	1173.000000
800.074463	1156.000000
800.110352	1139.000000
800.146179	1122.000000
800.181946	1131.000000
800.217773	1141.000000
800.253540	1132.000000
800.289429	1148.000000
800.325256	1134.000000
800.361023	1118.000000
800.396851	1105.000000
800.432678	1110.000000
800.468445	1106.000000
800.504272	1129.000000
800.540100	1123.000000
800.575867	1114.000000
800.611694	1110.000000
800.647461	1080.000000
800.683289	1069.000000
800.719116	1100.000000
800.754883	1099.000000
800.790649	1090.000000
800.826477	1081.000000
800.862244	1089.000000
800.898071	1060.000000
800.933838	1040.000000
800.969604	1050.000000
801.005432	1066.000000
801.041199	1069.000000
801.076965	1053.000000
801.112793	1024.000000
801.148560	1032.000000
801.184326	1020.000000
801.220154	1036.000000
801.255859	1018.000000
801.291687	1026.000000
801.327454	1016.000000
801.363281	1003.000000
801.398987	995.000000
801.434814	990.000000
801.470520	1006.000000
801.506287	994.000000
801.542114	992.000000
801.577820	993.000000
801.613647	989.000000
801.649414	970.000000
801.685120	985.000000
801.720886	995.000000
801.756714	994.000000
801.792419	976.000000
801.828186	960.000000
801.863892	966.000000
801.899719	962.000000
801.935486	957.000000
801.971252	968.000000
802.006958	971.000000
802.042725	969.000000
802.078430	951.000000
802.114197	946.000000
802.149963	973.000000
802.185669	953.000000
802.221436	947.000000
802.257202	970.000000
802.292908	946.000000
802.328674	955.000000
802.364441	943.000000
802.400146	945.000000
802.435913	953.000000
802.471558	947.000000
802.507324	937.000000
802.543091	947.000000
802.578796	951.000000
802.614502	943.000000
802.650269	956.000000
802.685974	945.000000
802.721741	967.000000
802.757446	963.000000
802.793152	941.000000
802.828918	945.000000
802.864624	950.000000
802.900330	964.000000
802.936035	944.000000
802.971802	948.000000
803.007446	938.000000
803.043213	915.000000
803.078857	917.000000
803.114624	892.000000
803.150330	908.000000
803.185974	913.000000
803.221741	918.000000
803.257446	917.000000
803.293152	903.000000
803.328857	892.000000
803.364563	891.000000
803.400208	894.000000
803.435974	912.000000
803.471680	887.000000
803.507324	881.000000
803.543030	875.000000
803.578735	880.000000
803.614441	877.000000
803.650146	882.000000
803.685791	871.000000
803.721497	872.000000
803.757202	848.000000
803.792847	866.000000
803.828552	853.000000
803.864258	855.000000
803.899902	849.000000
803.935608	847.000000
803.971313	841.000000
804.006958	839.000000
804.042664	826.000000
804.078308	835.000000
804.113953	833.000000
804.149658	849.000000
804.185364	828.000000
804.221008	846.000000
804.256714	826.000000
804.292297	824.000000
804.328003	802.000000
804.363708	807.000000
804.399292	802.000000
804.434998	804.000000
804.470703	803.000000
804.506287	801.000000
804.541992	793.000000
804.577637	807.000000
804.613281	800.000000
804.648926	787.000000
804.684570	795.000000
804.720215	792.000000
804.755920	790.000000
804.791565	772.000000
804.827209	790.000000
804.862854	787.000000
804.898437	793.000000
804.934143	784.000000
804.969788	787.000000
805.005371	791.000000
805.041077	789.000000
805.076721	778.000000
805.112305	790.000000
805.147949	789.000000
805.183655	773.000000
805.219238	781.000000
805.254883	774.000000
805.290466	785.000000
805.326111	784.000000
805.361755	776.000000
805.397400	779.000000
805.432983	782.000000
805.468628	777.000000
805.504211	775.000000
805.539856	782.000000
805.575500	785.000000
805.611084	770.000000
805.646729	758.000000
805.682373	769.000000
805.717957	769.000000
805.753601	774.000000
805.789246	747.000000
805.824768	767.000000
805.860413	783.000000
805.895996	758.000000
805.931641	750.000000
805.967224	769.000000
806.002869	749.000000
806.038452	757.000000
806.074036	760.000000
806.109619	742.000000
806.145264	747.000000
806.180847	738.000000
806.216431	740.000000
806.252014	729.000000
806.287659	723.000000
806.323181	743.000000
806.358826	741.000000
806.394409	720.000000
806.429993	718.000000
806.465576	723.000000
806.501160	706.000000
806.536743	704.000000
806.572327	719.000000
806.607910	709.000000
806.643494	723.000000
806.679077	693.000000
806.714661	701.000000
806.750244	703.000000
806.785828	693.000000
806.821350	690.000000
806.856934	693.000000
806.892517	691.000000
806.928101	681.000000
806.963684	679.000000
806.999268	679.000000
807.034790	661.000000
807.070374	675.000000
807.105896	653.000000
807.141479	663.000000
807.177063	665.000000
807.212585	656.000000
807.248169	651.000000
807.283752	655.000000
807.319275	663.000000
807.354858	654.000000
807.390381	651.000000
807.425903	642.000000
807.461487	640.000000
807.497070	635.000000
807.532593	636.000000
807.568115	632.000000
807.603699	626.000000
807.639221	619.000000
807.674744	633.000000
807.710266	627.000000
807.745850	628.000000
807.781372	621.000000
807.816895	626.000000
807.852417	627.000000
807.888000	617.000000
807.923523	614.000000
807.959045	602.000000
807.994629	612.000000
808.030090	605.000000
808.065613	610.000000
808.101135	617.000000
808.136658	617.000000
808.172241	610.000000
808.207764	614.000000
808.243225	604.000000
808.278809	596.000000
808.314270	611.000000
808.349792	598.000000
808.385315	592.000000
808.420837	598.000000
808.456360	601.000000
808.491882	593.000000
808.527344	596.000000
808.562866	611.000000
808.598389	596.000000
808.633850	593.000000
808.669434	587.000000
808.704895	593.000000
808.740417	603.000000
808.775940	599.000000
808.811462	587.000000
808.846924	575.000000
808.882385	581.000000
808.917847	573.000000
808.953369	586.000000
808.988892	580.000000
809.024353	577.000000
809.059875	582.000000
809.095398	574.000000
809.130798	561.000000
809.166321	567.000000
809.201843	559.000000
809.237305	561.000000
809.272766	573.000000
809.308228	564.000000
809.343750	564.000000
809.379211	554.000000
809.414734	562.000000
809.450134	561.000000
809.485657	544.000000
809.521118	554.000000
809.556580	549.000000
809.592102	552.000000
809.627502	548.000000
809.663025	532.000000
809.698486	527.000000
809.733887	529.000000
809.769409	532.000000
809.804871	517.000000
809.840271	523.000000
809.875793	520.000000
809.911194	521.000000
809.946655	521.000000
809.982178	515.000000
810.017639	521.000000
810.053040	517.000000
810.088501	513.000000
810.123901	513.000000
810.159424	513.000000
810.194885	503.000000
810.230286	521.000000
810.265747	504.000000
810.301208	496.000000
810.336609	502.000000
810.372070	492.000000
810.407532	501.000000
810.442932	500.000000
810.478394	500.000000
810.513794	499.000000
810.549255	485.000000
810.584717	493.000000
810.620117	473.000000
810.655518	489.000000
810.690979	489.000000
810.726379	486.000000
810.761841	479.000000
810.797302	485.000000
810.832642	471.000000
810.868103	491.000000
810.903564	472.000000
810.938904	489.000000
810.974365	477.000000
811.009827	487.000000
811.045166	457.000000
811.080627	460.000000
811.115967	467.000000
811.151428	471.000000
811.186829	468.000000
811.222229	474.000000
811.257629	463.000000
811.293091	475.000000
811.328430	479.000000
811.363892	467.000000
811.399292	472.000000
811.434631	469.000000
811.470093	464.000000
811.505493	463.000000
811.540833	463.000000
811.576294	471.000000
811.611694	461.000000
811.647034	451.000000
811.682434	456.000000
811.717773	461.000000
811.753235	469.000000
811.788635	460.000000
811.823975	464.000000
811.859375	465.000000
811.894775	451.000000
811.930115	454.000000
811.965515	461.000000
812.000916	457.000000
812.036255	456.000000
812.071655	454.000000
812.106995	448.000000
812.142395	449.000000
812.177795	454.000000
812.213196	451.000000
812.248474	452.000000
812.283875	436.000000
812.319214	442.000000
812.354614	441.000000
812.390015	436.000000
812.425293	430.000000
812.460693	432.000000
812.496094	440.000000
812.531433	420.000000
812.566772	428.000000
812.602173	434.000000
812.637451	431.000000
812.672852	423.000000
812.708191	425.000000
812.743530	419.000000
812.778931	410.000000
812.814270	419.000000
812.849609	419.000000
812.884949	422.000000
812.920227	414.000000
812.955627	427.000000
812.990967	418.000000
813.026306	416.000000
813.061646	393.000000
813.096985	406.000000
813.132324	393.000000
813.167664	393.000000
813.203003	405.000000
813.238281	388.000000
813.273682	386.000000
813.308960	387.000000
813.344299	395.000000
813.379639	396.000000
813.414978	393.000000
813.450256	387.000000
813.485596	389.000000
813.520874	369.000000
813.556213	386.000000
813.591614	382.000000
813.626831	381.000000
813.662170	376.000000
813.697510	398.000000
813.732788	374.000000
813.768127	387.000000
813.803467	377.000000
813.838745	375.000000
813.874084	385.000000
813.909363	374.000000
813.944641	382.000000
813.979980	369.000000
814.015320	375.000000
814.050598	370.000000
814.085876	369.000000
814.121155	370.000000
814.156494	369.000000
814.191772	374.000000
814.227051	371.000000
814.262390	369.000000
814.297668	373.000000
814.332947	373.000000
814.368225	365.000000
814.403564	366.000000
814.438782	369.000000
814.474121	364.000000
814.509338	373.000000
814.544617	368.000000
814.579956	355.000000
814.615173	374.000000
814.650513	368.000000
814.685791	360.000000
814.721008	368.000000
814.756348	354.000000
814.791626	358.000000
814.826843	353.000000
814.862122	355.000000
814.897400	345.000000
814.932678	358.000000
814.967957	354.000000
815.003235	357.000000
815.038452	347.000000
815.073730	341.000000
815.108948	357.000000
815.144226	356.000000
815.179504	355.000000
815.214722	345.000000
815.250000	344.000000
815.285278	348.000000
815.320496	337.000000
815.355774	342.000000
815.391052	347.000000
815.426270	334.000000
815.461487	340.000000
815.496765	329.000000
815.531982	325.000000
815.567261	335.000000
815.602539	339.000000
815.637695	341.000000
815.672974	341.000000
815.708191	338.000000
815.743408	344.000000
815.778687	332.000000
815.813904	344.000000
815.849121	321.000000
815.884399	325.000000
815.919556	322.000000
815.954834	328.000000
815.990051	322.000000
816.025269	336.000000
816.060486	320.000000
816.095703	327.000000
816.130920	324.000000
816.166199	321.000000
816.201416	327.000000
816.236572	328.000000
816.271851	318.000000
816.307007	322.000000
816.342224	309.000000
816.377441	315.000000
816.412659	299.000000
816.447876	314.000000
816.483093	312.000000
816.518250	315.000000
816.553467	315.000000
816.588745	314.000000
816.623901	301.000000
816.659119	303.000000
816.694275	307.000000
816.729492	309.000000
816.764709	338.000000
816.799927	308.000000
816.835083	305.000000
816.870300	301.000000
816.905457	302.000000
816.940674	314.000000
816.975830	296.000000
817.010986	297.000000
817.046204	293.000000
817.081421	290.000000
817.116577	295.000000
817.151733	303.000000
817.186951	300.000000
817.222107	300.000000
817.257324	307.000000
817.292419	302.000000
817.327637	293.000000
817.362854	299.000000
817.398010	292.000000
817.433167	294.000000
817.468323	295.000000
817.503479	295.000000
817.538635	314.000000
817.573853	300.000000
817.608948	301.000000
817.644165	291.000000
817.679321	298.000000
817.714478	291.000000
817.749634	296.000000
817.784790	304.000000
817.819946	297.000000
817.855103	278.000000
817.890198	291.000000
817.925415	276.000000
817.960571	294.000000
817.995667	288.000000
818.030823	295.000000
818.066040	282.000000
818.101135	295.000000
818.136292	288.000000
818.171448	286.000000
818.206543	286.000000
818.241699	295.000000
818.276855	286.000000
818.311951	285.000000
818.347107	278.000000
818.382263	293.000000
818.417358	295.000000
818.452515	298.000000
818.487610	293.000000
818.522766	282.000000
818.557922	285.000000
818.593018	291.000000
818.628113	287.000000
818.663269	280.000000
818.698364	290.000000
818.733521	278.000000
818.768677	283.000000
818.803711	278.000000
818.838867	277.000000
818.874023	277.000000
818.909058	274.000000
818.944214	269.000000
818.979370	281.000000
819.014404	276.000000
819.049561	272.000000
819.084595	277.000000
819.119751	273.000000
819.154846	273.000000
819.189941	277.000000
819.225037	267.000000
819.260193	260.000000
819.295227	261.000000
819.330322	257.000000
819.365479	258.000000
819.400513	291.000000
819.435608	255.000000
819.470764	258.000000
819.505798	255.000000
819.540894	263.000000
819.575989	257.000000
819.611084	269.000000
819.646179	264.000000
819.681213	266.000000
819.716309	255.000000
819.751404	266.000000
819.786438	263.000000
819.821533	255.000000
819.856628	260.000000
819.891663	267.000000
819.926758	267.000000
819.961853	269.000000
819.996887	255.000000
820.031982	264.000000
820.067017	261.000000
820.102112	288.000000
820.137207	259.000000
820.172302	278.000000
820.207275	253.000000
820.242371	254.000000
820.277405	253.000000
820.312500	263.000000
820.347534	261.000000
820.382568	260.000000
820.417664	254.000000
820.452759	257.000000
820.487732	257.000000
820.522827	260.000000
820.557861	253.000000
820.592896	249.000000
820.627930	255.000000
820.662964	251.000000
820.698059	262.000000
820.733093	249.000000
820.768127	257.000000
820.803162	252.000000
820.838196	251.000000
820.873230	252.000000
820.908264	259.000000
820.943298	245.000000
820.978333	257.000000
821.013367	251.000000
821.048401	260.000000
821.083435	257.000000
821.118469	237.000000
821.153503	253.000000
821.188477	249.000000
821.223511	240.000000
821.258484	254.000000
821.293579	245.000000
821.328613	243.000000
821.363647	246.000000
821.398621	243.000000
821.433655	243.000000
821.468628	263.000000
821.503662	243.000000
821.538696	253.000000
821.573669	242.000000
821.608704	243.000000
821.643677	243.000000
821.678650	248.000000
821.713684	256.000000
821.748718	241.000000
821.783691	245.000000
821.818726	243.000000
821.853638	249.000000
821.888672	237.000000
821.923706	241.000000
821.958618	239.000000
821.993652	239.000000
822.028687	246.000000
822.063599	249.000000
822.098633	241.000000
822.133667	236.000000
822.168579	243.000000
822.203613	241.000000
822.238586	233.000000
822.273560	243.000000
822.308533	234.000000
822.343567	233.000000
822.378479	236.000000
822.413452	238.000000
822.448425	231.000000
822.483398	242.000000
822.518372	234.000000
822.553345	228.000000
822.588318	243.000000
822.623291	237.000000
822.658203	230.000000
822.693237	235.000000
822.728210	227.000000
822.763123	229.000000
822.798096	227.000000
822.833069	235.000000
822.867981	230.000000
822.902954	235.000000
822.937927	234.000000
822.972900	238.000000
823.007874	222.000000
823.042725	233.000000
823.077698	242.000000
823.112671	227.000000
823.147583	227.000000
823.182556	231.000000
823.217529	237.000000
823.252441	229.000000
823.287415	243.000000
823.322388	231.000000
823.357239	230.000000
823.392212	235.000000
823.427185	232.000000
823.462097	227.000000
823.497009	235.000000
823.531982	227.000000
823.566895	231.000000
823.601807	220.000000
823.636719	229.000000
823.671631	231.000000
823.706604	229.000000
823.741455	233.000000
823.776428	221.000000
823.811340	226.000000
823.846252	238.000000
823.881165	233.000000
823.916138	227.000000
823.950989	235.000000
823.985901	224.000000
824.020813	221.000000
824.055725	226.000000
824.090637	217.000000
824.125610	226.000000
824.160461	226.000000
824.195374	230.000000
824.230225	224.000000
824.265198	218.000000
824.300110	221.000000
824.334961	234.000000
824.369873	216.000000
824.404785	231.000000
824.439636	228.000000
824.474548	217.000000
824.509460	213.000000
824.544312	228.000000
824.579224	230.000000
824.614075	234.000000
824.648987	224.000000
824.683899	222.000000
824.718811	224.000000
824.753662	229.000000
824.788574	231.000000
824.823364	226.000000
824.858276	217.000000
824.893188	230.000000
824.928040	230.000000
824.962952	223.000000
824.997803	228.000000
825.032654	221.000000
825.067566	223.000000
825.102417	217.000000
825.137268	221.000000
825.172119	220.000000
825.206970	218.000000
825.241882	215.000000
825.276733	214.000000
825.311646	217.000000
825.346436	218.000000
825.381348	211.000000
825.416138	221.000000
825.450989	212.000000
825.485901	210.000000
825.520691	204.000000
825.555542	213.000000
825.590454	211.000000
825.625244	213.000000
825.660095	225.000000
825.695007	225.000000
825.729797	216.000000
825.764648	215.000000
825.799438	213.000000
825.834290	221.000000
825.869202	210.000000
825.903992	217.000000
825.938843	213.000000
825.973694	210.000000
826.008484	226.000000
826.043335	209.000000
826.078186	209.000000
826.112976	221.000000
826.147827	226.000000
826.182678	223.000000
826.217468	209.000000
826.252319	217.000000
826.287109	212.000000
826.321899	218.000000
826.356750	211.000000
826.391541	205.000000
826.426392	217.000000
826.461182	214.000000
826.495972	208.000000
826.530823	201.000000
826.565613	216.000000
826.600403	204.000000
826.635254	218.000000
826.670044	202.000000
826.704834	203.000000
826.739685	202.000000
826.774475	214.000000
826.809265	213.000000
826.844055	209.000000
826.878906	217.000000
826.913635	215.000000
826.948425	215.000000
826.983215	210.000000
827.018005	213.000000
827.052856	205.000000
827.087585	215.000000
827.122375	203.000000
827.157227	207.000000
827.191956	221.000000
827.226746	205.000000
827.261536	213.000000
827.296265	206.000000
827.331116	202.000000
827.365906	211.000000
827.400635	207.000000
827.435425	202.000000
827.470215	216.000000
827.504944	208.000000
827.539734	212.000000
827.574463	206.000000
827.609253	213.000000
827.644043	210.000000
827.678772	211.000000
827.713562	214.000000
827.748352	208.000000
827.783081	211.000000
827.817871	209.000000
827.852600	209.000000
827.887329	202.000000
827.922119	197.000000
827.956848	210.000000
827.991638	221.000000
828.026367	208.000000
828.061157	211.000000
828.095886	200.000000
828.130615	223.000000
828.165344	195.000000
828.200073	205.000000
828.234863	202.000000
828.269592	205.000000
828.304321	211.000000
828.339111	209.000000
828.373779	203.000000
828.408569	212.000000
828.443298	206.000000
828.477966	204.000000
828.512756	206.000000
828.547424	204.000000
828.582214	209.000000
828.616943	201.000000
828.651672	203.000000
828.686340	208.000000
828.721130	200.000000
828.755798	208.000000
828.790527	209.000000
828.825256	208.000000
828.859924	208.000000
828.894714	214.000000
828.929443	215.000000
828.964111	205.000000
828.998840	210.000000
829.033569	204.000000
829.068237	201.000000
829.102966	199.000000
829.137634	206.000000
829.172363	209.000000
829.207092	207.000000
829.241821	201.000000
829.276489	197.000000
829.311157	203.000000
829.345825	200.000000
829.380554	207.000000
829.415283	203.000000
829.449951	199.000000
829.484619	216.000000
829.519348	210.000000
829.554016	205.000000
829.588745	200.000000
829.623413	192.000000
829.658081	208.000000
829.692749	199.000000
829.727417	208.000000
829.762146	204.000000
829.796814	197.000000
829.831482	201.000000
829.866150	201.000000
829.900879	201.000000
829.935486	204.000000
829.970154	202.000000
830.004883	212.000000
830.039490	205.000000
830.074219	198.000000
830.108887	204.000000
830.143494	203.000000
830.178223	194.000000
830.212891	200.000000
830.247498	204.000000
830.282166	211.000000
830.316772	209.000000
830.351501	203.000000
830.386169	204.000000
830.420776	203.000000
830.455444	202.000000
830.490112	201.000000
830.524719	189.000000
830.559387	211.000000
830.594055	207.000000
830.628662	204.000000
830.663330	201.000000
830.697998	210.000000
830.732605	203.000000
830.767273	207.000000
830.801941	197.000000
830.836487	212.000000
830.871155	205.000000
830.905762	204.000000
830.940430	191.000000
830.975098	201.000000
831.009644	202.000000
831.044312	210.000000
831.078979	203.000000
831.113525	188.000000
831.148193	203.000000
831.182861	200.000000
831.217407	205.000000
831.252075	219.000000
831.286621	198.000000
831.321289	196.000000
831.355896	200.000000
831.390564	212.000000
831.425110	200.000000
831.459778	208.000000
831.494324	215.000000
831.528931	206.000000
831.563599	207.000000
831.598145	193.000000
831.632751	199.000000
831.667419	203.000000
831.701965	206.000000
831.736572	209.000000
831.771179	197.000000
831.805786	197.000000
831.840393	203.000000
831.874939	197.000000
831.909546	205.000000
831.944153	188.000000
831.978760	199.000000
832.013306	195.000000
832.047913	207.000000
832.082458	206.000000
832.117065	200.000000
832.151672	209.000000
832.186218	203.000000
832.220825	201.000000
832.255432	195.000000
832.289978	197.000000
832.324585	206.000000
832.359192	200.000000
832.393677	201.000000
832.428284	200.000000
832.462830	200.000000
832.497437	200.000000
832.531982	207.000000
832.566589	197.000000
832.601135	204.000000
832.635681	189.000000
832.670227	198.000000
832.704773	206.000000
832.739380	205.000000
832.773926	198.000000
832.808472	200.000000
832.843079	203.000000
832.877563	202.000000
832.912170	202.000000
832.946716	193.000000
832.981201	206.000000
833.015808	207.000000
833.050293	203.000000
833.084839	194.000000
833.119446	201.000000
833.153992	205.000000
833.188477	198.000000
833.223022	199.000000
833.257568	204.000000
833.292114	205.000000
833.326660	215.000000
833.361145	199.000000
833.395691	195.000000
833.430237	204.000000
833.464783	206.000000
833.499329	197.000000
833.533875	197.000000
833.568359	203.000000
833.602905	209.000000
833.637390	205.000000
833.671875	200.000000
833.706421	198.000000
833.740906	201.000000
833.775452	188.000000
833.809998	197.000000
833.844482	207.000000
833.879028	204.000000
833.913513	196.000000
833.947998	204.000000
833.982544	196.000000
834.017090	195.000000
834.051514	190.000000
834.086060	206.000000
834.120544	201.000000
834.155029	205.000000
834.189575	199.000000
834.223999	204.000000
834.258545	201.000000
834.293030	199.000000
834.327515	196.000000
834.362000	203.000000
834.396545	207.000000
834.430969	202.000000
834.465454	209.000000
834.500000	195.000000
834.534424	204.000000
834.568970	194.000000
834.603455	192.000000
834.637878	197.000000
834.672363	201.000000
834.706909	206.000000
834.741333	199.000000
834.775818	191.000000
834.810242	203.000000
834.844727	202.000000
834.879211	202.000000
834.913635	202.000000
834.948181	201.000000
834.982666	201.000000
835.017090	201.000000
835.051575	199.000000
835.086060	198.000000
835.120483	206.000000
835.154907	207.000000
835.189331	204.000000
835.223816	202.000000
835.258301	191.000000
835.292786	198.000000
835.327209	208.000000
835.361694	195.000000
835.396057	194.000000
835.430542	202.000000
835.465027	195.000000
835.499390	201.000000
835.533875	220.000000
835.568359	193.000000
835.602722	194.000000
835.637207	205.000000
835.671692	191.000000
835.706055	220.000000
835.740540	203.000000
835.774902	203.000000
835.809387	202.000000
835.843811	195.000000
835.878235	208.000000
835.912659	196.000000
835.947083	199.000000
835.981506	201.000000
836.015930	195.000000
836.050354	208.000000
836.084778	210.000000
836.119202	209.000000
836.153625	216.000000
836.187988	197.000000
836.222473	202.000000
836.256897	197.000000
836.291260	199.000000
836.325684	204.000000
836.360046	201.000000
836.394470	195.000000
836.428894	212.000000
836.463318	194.000000
836.497681	206.000000
836.532104	206.000000
836.566467	204.000000
836.600891	198.000000
836.635315	209.000000
836.669678	201.000000
836.704102	203.000000
836.738525	201.000000
836.772888	196.000000
836.807251	192.000000
836.841675	206.000000
836.876038	195.000000
836.910461	194.000000
836.944763	204.000000
836.979187	201.000000
837.013611	201.000000
837.047974	196.000000
837.082336	215.000000
837.116699	204.000000
837.151062	201.000000
837.185486	192.000000
837.219849	197.000000
837.254211	209.000000
837.288574	199.000000
837.322937	192.000000
837.357300	191.000000
837.391663	215.000000
837.426086	201.000000
837.460388	202.000000
837.494751	209.000000
837.529114	200.000000
837.563477	208.000000
837.597839	202.000000
837.632141	199.000000
837.666565	198.000000
837.700928	206.000000
837.735229	203.000000
837.769592	208.000000
837.803955	206.000000
837.838257	201.000000
837.872620	199.000000
837.906982	212.000000
837.941284	201.000000
837.975647	202.000000
838.010010	203.000000
838.044312	198.000000
838.078674	199.000000
838.112976	202.000000
838.147339	200.000000
838.181702	199.000000
838.216003	211.000000
838.250366	203.000000
838.284668	202.000000
838.318970	199.000000
838.353333	197.000000
838.387634	201.000000
838.421936	196.000000
838.456299	199.000000
838.490601	208.000000
838.524902	208.000000
838.559265	204.000000
838.593567	205.000000
838.627869	200.000000
838.662170	205.000000
838.696472	193.000000
838.730774	199.000000
838.765137	202.000000
838.799377	187.000000
838.833740	207.000000
838.868042	207.000000
838.902283	197.000000
838.936646	213.000000
838.970947	202.000000
839.005188	204.000000
839.039551	195.000000
839.073792	203.000000
839.108093	201.000000
839.142395	209.000000
839.176697	193.000000
839.210937	203.000000
839.245300	215.000000
839.279541	196.000000
839.313843	201.000000
839.348145	204.000000
839.382385	203.000000
839.416687	204.000000
839.450989	204.000000
839.485229	196.000000
839.519531	198.000000
839.553833	204.000000
839.588013	199.000000
839.622314	200.000000
839.656555	203.000000
839.690857	195.000000
839.725159	193.000000
839.759460	197.000000
839.793640	197.000000
839.827942	198.000000
839.862183	194.000000
839.896423	199.000000
839.930725	207.000000
839.964966	209.000000
839.999207	206.000000
840.033508	209.000000
840.067688	199.000000
840.101990	210.000000
840.136230	201.000000
840.170471	211.000000
840.204712	196.000000
840.238953	199.000000
840.273193	204.000000
840.307434	202.000000
840.341736	199.000000
840.375916	198.000000
840.410217	198.000000
840.444397	205.000000
840.478638	208.000000
840.512878	209.000000
840.547119	201.000000
840.581360	207.000000
840.615601	210.000000
840.649780	212.000000
840.684021	199.000000
840.718262	209.000000
840.752441	204.000000
840.786682	205.000000
840.820862	203.000000
840.855103	209.000000
840.889343	203.000000
840.923584	208.000000
840.957764	204.000000
840.992004	205.000000
841.026184	211.000000
841.060425	200.000000
841.094666	195.000000
841.128845	205.000000
841.163025	201.000000
841.197266	204.000000
841.231445	201.000000
841.265686	204.000000
841.299866	195.000000
841.334045	207.000000
841.368286	201.000000
841.402405	215.000000
841.436646	206.000000
841.470825	201.000000
841.505005	200.000000
841.539185	197.000000
841.573425	199.000000
841.607544	202.000000
841.641785	199.000000
841.675964	197.000000
841.710144	201.000000
841.744324	200.000000
841.778503	202.000000
841.812683	198.000000
841.846863	213.000000
841.881042	209.000000
841.915222	201.000000
841.949402	217.000000
841.983521	195.000000
842.017700	202.000000
842.051880	204.000000
842.086060	202.000000
842.120239	205.000000
842.154419	202.000000
842.188538	201.000000
842.222717	198.000000
842.256897	211.000000
842.291016	199.000000
842.325195	204.000000
842.359375	209.000000
842.393494	208.000000
842.427673	199.000000
842.461853	205.000000
842.495911	209.000000
842.530090	205.000000
842.564209	197.000000
842.598389	205.000000
842.632568	203.000000
842.666626	206.000000
842.700806	194.000000
842.734985	199.000000
842.769043	198.000000
842.803223	202.000000
842.837402	201.000000
842.871460	198.000000
842.905640	209.000000
842.939697	199.000000
842.973877	204.000000
843.007996	211.000000
843.042175	208.000000
843.076233	196.000000
843.110413	202.000000
843.144470	216.000000
843.178589	206.000000
843.212769	200.000000
843.246826	205.000000
843.280945	199.000000
843.315125	200.000000
843.349182	197.000000
843.383301	208.000000
843.417419	217.000000
843.451538	202.000000
843.485657	199.000000
843.519714	204.000000
843.553833	202.000000
843.587952	198.000000
843.622070	195.000000
843.656128	209.000000
843.690247	196.000000
843.724304	202.000000
843.758423	203.000000
843.792542	198.000000
843.826599	202.000000
843.860718	200.000000
843.894836	196.000000
843.928894	205.000000
843.963013	202.000000
843.997070	197.000000
844.031128	193.000000
844.065247	208.000000
844.099304	204.000000
844.133362	204.000000
844.167480	204.000000
844.201599	212.000000
844.235596	206.000000
844.269714	206.000000
844.303711	200.000000
844.337830	198.000000
844.371948	208.000000
844.405945	200.000000
844.440063	197.000000
844.474121	217.000000
844.508118	202.000000
844.542236	203.000000
844.576294	205.000000
844.610352	196.000000
844.644409	206.000000
844.678406	192.000000
844.712524	203.000000
844.746582	211.000000
844.780640	204.000000
844.814636	202.000000
844.848755	216.000000
844.882751	203.000000
844.916809	205.000000
844.950867	204.000000
844.984863	214.000000
845.018921	200.000000
845.052979	200.000000
845.086975	199.000000
845.121033	195.000000
845.155090	195.000000
845.189087	209.000000
845.223145	195.000000
845.257141	203.000000
845.291199	205.000000
845.325256	212.000000
845.359253	199.000000
845.393250	211.000000
845.427307	196.000000
845.461304	206.000000
845.495361	200.000000
845.529358	209.000000
845.563354	199.000000
845.597412	197.000000
845.631409	206.000000
845.665405	211.000000
845.699463	207.000000
845.733459	198.000000
845.767456	207.000000
845.801453	203.000000
845.835449	210.000000
845.869446	213.000000
845.903503	206.000000
845.937439	200.000000
845.971497	211.000000
846.005493	196.000000
846.039429	206.000000
846.073486	211.000000
846.107483	205.000000
846.141418	201.000000
846.175476	203.000000
846.209473	211.000000
846.243408	197.000000
846.277405	203.000000
846.311401	199.000000
846.345337	203.000000
846.379395	211.000000
846.413330	199.000000
846.447327	210.000000
846.481323	199.000000
846.515259	200.000000
846.549255	198.000000
846.583252	206.000000
846.617187	193.000000
846.651184	203.000000
846.685120	198.000000
846.719055	209.000000
846.753052	206.000000
846.786987	211.000000
846.820984	196.000000
846.854980	211.000000
846.888916	197.000000
846.922852	208.000000
846.956848	211.000000
846.990723	199.000000
847.024719	206.000000
847.058716	199.000000
847.092590	209.000000
847.126587	203.000000
847.160522	197.000000
847.194458	210.000000
847.228455	201.000000
847.262390	196.000000
847.296265	202.000000
847.330261	213.000000
847.364136	199.000000
847.398132	196.000000
847.432068	206.000000
847.466003	202.000000
847.499939	201.000000
847.533875	208.000000
847.567749	205.000000
847.601746	200.000000
847.635681	208.000000
847.669556	191.000000
847.703491	209.000000
847.737427	220.000000
847.771301	198.000000
847.805237	203.000000
847.839233	205.000000
847.873108	197.000000
847.907043	203.000000
847.940918	203.000000
847.974854	206.000000
848.008789	206.000000
848.042664	205.000000
848.076538	198.000000
848.110474	205.000000
848.144348	202.000000
848.178284	196.000000
848.212219	202.000000
848.246094	204.000000
848.279968	202.000000
848.313904	207.000000
848.347778	204.000000
848.381653	202.000000
848.415588	197.000000
848.449463	199.000000
848.483337	201.000000
848.517212	208.000000
848.551086	201.000000
848.585022	197.000000
848.618835	212.000000
848.652771	202.000000
848.686646	197.000000
848.720520	214.000000
848.754395	204.000000
848.788330	206.000000
848.822144	204.000000
848.856018	203.000000
848.889954	213.000000
848.923767	199.000000
848.957642	203.000000
848.991577	204.000000
849.025391	200.000000
849.059265	202.000000
849.093079	199.000000
849.126953	196.000000
849.160828	208.000000
849.194641	201.000000
849.228577	201.000000
849.262451	201.000000
849.296265	201.000000
849.330139	193.000000
849.364014	203.000000
849.397827	204.000000
849.431702	206.000000
849.465515	204.000000
849.499329	192.000000
849.533203	197.000000
849.567078	193.000000
849.600891	201.000000
849.634766	204.000000
849.668518	204.000000
849.702393	200.000000
849.736267	194.000000
849.770020	215.000000
849.803894	199.000000
849.837769	206.000000
849.871521	201.000000
849.905396	209.000000
849.939270	198.000000
849.973022	204.000000
850.006897	205.000000
850.040710	206.000000
850.074524	203.000000
850.108337	202.000000
850.142151	205.000000
850.175964	208.000000
850.209778	198.000000
850.243530	189.000000
850.277405	212.000000
850.311218	199.000000
850.344971	200.000000
850.378845	211.000000
850.412659	200.000000
850.446411	201.000000
850.480225	204.000000
850.514038	205.000000
850.547791	200.000000
850.581665	201.000000
850.615417	198.000000
850.649231	202.000000
850.683044	201.000000
850.716858	200.000000
850.750610	204.000000
850.784424	209.000000
850.818176	197.000000
850.851929	195.000000
850.885742	199.000000
850.919495	198.000000
850.953308	209.000000
850.987122	207.000000
851.020874	193.000000
851.054626	191.000000
851.088440	204.000000
851.122192	202.000000
851.156006	208.000000
851.189697	200.000000
851.223511	196.000000
851.257263	206.000000
851.291077	208.000000
851.324829	198.000000
851.358582	205.000000
851.392334	202.000000
851.426086	202.000000
851.459900	212.000000
851.493591	203.000000
851.527344	202.000000
851.561157	205.000000
851.594849	205.000000
851.628662	201.000000
851.662415	211.000000
851.696106	203.000000
851.729858	207.000000
851.763611	196.000000
851.797363	208.000000
851.831116	197.000000
851.864868	207.000000
851.898560	206.000000
851.932312	199.000000
851.966064	207.000000
851.999817	207.000000
852.033569	199.000000
852.067261	209.000000
852.101013	196.000000
852.134766	201.000000
852.168457	188.000000
852.202209	209.000000
852.235901	194.000000
852.269592	205.000000
852.303345	209.000000
852.337036	202.000000
852.370789	199.000000
852.404541	207.000000
852.438171	199.000000
852.471924	204.000000
852.505676	197.000000
852.539307	205.000000
852.573059	194.000000
852.606812	201.000000
852.640442	197.000000
852.674194	210.000000
852.707886	216.000000
852.741577	211.000000
852.775269	198.000000
852.809021	206.000000
852.842651	204.000000
852.876404	210.000000
852.910034	205.000000
852.943787	210.000000
852.977478	205.000000
853.011108	200.000000
853.044861	200.000000
853.078552	213.000000
853.112183	203.000000
853.145874	205.000000
853.179626	196.000000
853.213257	204.000000
853.246948	199.000000
853.280640	209.000000
853.314270	206.000000
853.347961	209.000000
853.381653	207.000000
853.415283	207.000000
853.448975	196.000000
853.482605	202.000000
853.516296	200.000000
853.549988	193.000000
853.583618	206.000000
853.617310	206.000000
853.651001	204.000000
853.684631	196.000000
853.718323	202.000000
853.751953	208.000000
853.785583	195.000000
853.819275	208.000000
853.852966	206.000000
853.886536	194.000000
853.920227	198.000000
853.953918	204.000000
853.987488	199.000000
854.021179	206.000000
854.054749	210.000000
854.088440	205.000000
854.122131	199.000000
854.155701	203.000000
854.189331	200.000000
854.223022	206.000000
854.256592	204.000000
854.290283	200.000000
854.323914	210.000000
854.357483	202.000000
854.391174	206.000000
854.424744	212.000000
854.458374	206.000000
854.492065	213.000000
854.525696	201.000000
854.559265	210.000000
854.592896	214.000000
854.626465	202.000000
854.660095	201.000000
854.693787	207.000000
854.727356	200.000000
854.760986	207.000000
854.794617	206.000000
854.828186	201.000000
854.861816	202.000000
854.895447	204.000000
854.929016	202.000000
854.962585	205.000000
854.996155	208.000000
855.029785	205.000000
855.063416	202.000000
855.097046	210.000000
855.130615	195.000000
855.164185	211.000000
855.197754	201.000000
855.231384	204.000000
855.264954	200.000000
855.298523	210.000000
855.332153	203.000000
855.365723	213.000000
855.399292	197.000000
855.432922	204.000000
855.466492	201.000000
855.500061	198.000000
855.533630	199.000000
855.567200	207.000000
855.600769	208.000000
855.634338	208.000000
855.667969	201.000000
855.701477	197.000000
855.735046	201.000000
855.768616	194.000000
855.802185	205.000000
855.835754	218.000000
855.869324	191.000000
855.902893	204.000000
855.936401	215.000000
855.969971	203.000000
856.003540	198.000000
856.037109	209.000000
856.070618	201.000000
856.104187	199.000000
856.137695	203.000000
856.171265	190.000000
856.204834	205.000000
856.238403	203.000000
856.271912	201.000000
856.305481	207.000000
856.338989	195.000000
856.372559	202.000000
856.406128	204.000000
856.439636	206.000000
856.473145	201.000000
856.506653	210.000000
856.540222	205.000000
856.573792	206.000000
856.607300	207.000000
856.640808	197.000000
856.674377	205.000000
856.707825	230.000000
856.741394	211.000000
856.774902	197.000000
856.808472	198.000000
856.841980	205.000000
856.875488	211.000000
856.908936	195.000000
856.942505	205.000000
856.976013	199.000000
857.009521	202.000000
857.043030	204.000000
857.076477	202.000000
857.110046	211.000000
857.143555	206.000000
857.177063	209.000000
857.210571	202.000000
857.244080	200.000000
857.277527	208.000000
857.311035	205.000000
857.344543	211.000000
857.378052	200.000000
857.411499	206.000000
857.445068	216.000000
857.478516	201.000000
857.512024	199.000000
857.545532	206.000000
857.578979	207.000000
857.612427	198.000000
857.645874	199.000000
857.679382	200.000000
857.712891	208.000000
857.746399	201.000000
857.779846	206.000000
857.813354	209.000000
857.846741	202.000000
857.880249	194.000000
857.913757	206.000000
857.947266	200.000000
857.980652	204.000000
858.014160	197.000000
858.047546	201.000000
858.081055	199.000000
858.114563	209.000000
858.147949	194.000000
858.181458	210.000000
858.214844	201.000000
858.248352	193.000000
858.281799	204.000000
858.315308	218.000000
858.348694	203.000000
858.382141	209.000000
858.415588	205.000000
858.449036	208.000000
858.482483	205.000000
858.515930	201.000000
858.549377	202.000000
858.582825	210.000000
858.616211	206.000000
858.649658	206.000000
858.683105	193.000000
858.716553	203.000000
858.750000	199.000000
858.783386	200.000000
858.816833	196.000000
858.850281	203.000000
858.883728	206.000000
858.917114	201.000000
858.950562	215.000000
858.983948	207.000000
859.017395	206.000000
859.050781	197.000000
859.084167	201.000000
859.117615	192.000000
859.151062	203.000000
859.184448	193.000000
859.217834	201.000000
859.251282	201.000000
859.284668	196.000000
859.318054	191.000000
859.351440	201.000000
859.384888	205.000000
859.418274	195.000000
859.451721	192.000000
859.485046	202.000000
859.518494	203.000000
859.551819	200.000000
859.585266	200.000000
859.618652	204.000000
859.652039	198.000000
859.685425	195.000000
859.718811	194.000000
859.752197	190.000000
859.785583	208.000000
859.819031	213.000000
859.852356	206.000000
859.885742	196.000000
859.919067	205.000000
859.952454	201.000000
859.985901	206.000000
860.019287	200.000000
860.052612	0.000000
860.085999	0.000000
860.119324	0.000000
860.152710	0.000000
860.186096	0.000000
860.219421	0.000000
860.252808	0.000000
860.286133	0.000000
860.319519	0.000000
860.352905	0.000000
860.386292	0.000000
860.419617	0.000000
860.452942	0.000000
860.486267	0.000000
860.519653	0.000000
860.553040	0.000000
860.586365	0.000000
860.619690	0.000000
860.653076	0.000000
860.686340	0.000000
860.719727	0.000000
860.753113	0.000000
860.786377	0.000000
860.819763	0.000000
860.853027	0.000000
860.886414	0.000000
860.919739	0.000000
860.953125	0.000000
860.986389	0.000000
861.019714	0.000000
861.053040	0.000000
861.086365	0.000000
861.119690	0.000000
861.153076	0.000000
861.186340	0.000000
861.219666	0.000000
861.252930	0.000000
861.286316	0.000000
861.319641	0.000000
861.352905	0.000000
861.386230	0.000000
861.419495	0.000000
861.452820	0.000000
861.486145	0.000000
861.519470	0.000000
861.552734	0.000000
861.586060	0.000000
861.619324	0.000000
861.652649	0.000000
861.685974	0.000000
861.719238	0.000000
861.752563	0.000000
861.785828	0.000000
861.819092	0.000000
861.852417	0.000000
861.885742	0.000000
861.918945	0.000000
861.952271	0.000000
861.985535	0.000000
862.018799	0.000000
862.052124	0.000000
862.085449	0.000000
862.118652	0.000000
862.151978	0.000000
862.185181	0.000000
862.218506	0.000000
862.251770	0.000000
862.285034	0.000000
862.318298	0.000000
862.351562	0.000000
862.384827	0.000000
862.418091	0.000000
862.451355	0.000000
862.484619	0.000000
862.517883	0.000000
862.551086	0.000000
862.584351	0.000000
862.617676	0.000000
862.650940	0.000000
862.684143	0.000000
862.717407	0.000000
862.750610	0.000000
862.783875	0.000000
862.817139	0.000000
862.850342	0.000000
862.883606	0.000000
862.916870	0.000000
862.950073	0.000000
862.983337	0.000000
863.016602	0.000000
863.049805	0.000000
863.083069	0.000000
863.116211	0.000000
863.149475	0.000000
863.182739	0.000000
863.216003	0.000000
863.249146	0.000000
863.282410	0.000000
863.315613	0.000000
863.348816	0.000000
863.382080	0.000000
863.415222	0.000000
863.448486	0.000000
863.481689	0.000000
863.514893	0.000000
863.548157	0.000000
863.581360	0.000000
863.614502	0.000000
863.647766	0.000000
863.680908	0.000000
863.714172	0.000000
863.747375	0.000000
863.780579	0.000000
863.813721	0.000000
863.846985	0.000000
863.880127	0.000000
863.913330	0.000000
863.946533	0.000000
863.979675	0.000000
864.012939	0.000000
