Model Number: SPM-001-M   
Serial Number: 10090201
Firmware Version: 004.17.6
Exposure Time: 500000.000000us
Data Taken on: 19-08-2020 09:33:26.201
Wavelength	Amplitude
733.770752	0.000000
733.808716	0.000000
733.846619	0.000000
733.884583	0.000000
733.922546	0.000000
733.960449	0.000000
733.998413	0.000000
734.036377	0.000000
734.074219	0.000000
734.112183	0.000000
734.150085	0.000000
734.188049	0.000000
734.226013	0.000000
734.263916	0.000000
734.301819	0.000000
734.339783	0.000000
734.377686	0.000000
734.415588	0.000000
734.453552	0.000000
734.491455	0.000000
734.529419	0.000000
734.567322	0.000000
734.605225	0.000000
734.643127	0.000000
734.681091	0.000000
734.718994	0.000000
734.756897	0.000000
734.794800	0.000000
734.832703	0.000000
734.870667	0.000000
734.908508	0.000000
734.946472	0.000000
734.984375	0.000000
735.022278	0.000000
735.060181	0.000000
735.098083	0.000000
735.135986	0.000000
735.173889	0.000000
735.211792	0.000000
735.249695	0.000000
735.287598	0.000000
735.325439	0.000000
735.363403	0.000000
735.401306	0.000000
735.439148	0.000000
735.477051	0.000000
735.515015	0.000000
735.552856	0.000000
735.590759	0.000000
735.628662	0.000000
735.666504	0.000000
735.704407	0.000000
735.742310	0.000000
735.780212	0.000000
735.818115	0.000000
735.856018	0.000000
735.893860	0.000000
735.931763	0.000000
735.969604	0.000000
736.007507	0.000000
736.045410	0.000000
736.083252	0.000000
736.121094	0.000000
736.158997	0.000000
736.196838	0.000000
736.234741	0.000000
736.272644	0.000000
736.310486	0.000000
736.348389	0.000000
736.386230	0.000000
736.424072	0.000000
736.461975	0.000000
736.499878	0.000000
736.537720	0.000000
736.575562	0.000000
736.613403	0.000000
736.651306	0.000000
736.689148	0.000000
736.726990	0.000000
736.764893	0.000000
736.802734	0.000000
736.840576	0.000000
736.878418	0.000000
736.916321	0.000000
736.954102	0.000000
736.992004	0.000000
737.029846	0.000000
737.067688	0.000000
737.105530	0.000000
737.143372	0.000000
737.181213	0.000000
737.219116	0.000000
737.256897	0.000000
737.294739	0.000000
737.332642	0.000000
737.370422	0.000000
737.408325	0.000000
737.446167	0.000000
737.483948	0.000000
737.521790	0.000000
737.559692	0.000000
737.597473	0.000000
737.635315	0.000000
737.673157	0.000000
737.710999	0.000000
737.748840	0.000000
737.786621	0.000000
737.824463	0.000000
737.862305	0.000000
737.900085	0.000000
737.937927	0.000000
737.975769	0.000000
738.013550	0.000000
738.051392	0.000000
738.089233	0.000000
738.127014	0.000000
738.164856	0.000000
738.202698	0.000000
738.240479	0.000000
738.278320	0.000000
738.316162	0.000000
738.353943	0.000000
738.391785	0.000000
738.429565	0.000000
738.467407	0.000000
738.505188	0.000000
738.542969	0.000000
738.580811	0.000000
738.618652	0.000000
738.656372	0.000000
738.694214	0.000000
738.732056	0.000000
738.769836	0.000000
738.807617	0.000000
738.845459	0.000000
738.883240	0.000000
738.921021	0.000000
738.958862	0.000000
738.996582	0.000000
739.034424	0.000000
739.072205	0.000000
739.109985	0.000000
739.147827	0.000000
739.185547	0.000000
739.223389	0.000000
739.261169	0.000000
739.298889	0.000000
739.336731	0.000000
739.374512	0.000000
739.412292	0.000000
739.450073	0.000000
739.487854	0.000000
739.525635	0.000000
739.563416	0.000000
739.601135	0.000000
739.638977	0.000000
739.676758	0.000000
739.714478	0.000000
739.752258	0.000000
739.790100	0.000000
739.827820	0.000000
739.865601	0.000000
739.903381	0.000000
739.941101	0.000000
739.978882	189.000000
740.016724	190.000000
740.054443	188.000000
740.092224	186.000000
740.130005	185.000000
740.167725	186.000000
740.205505	182.000000
740.243225	196.000000
740.281006	183.000000
740.318787	182.000000
740.356506	191.000000
740.394287	192.000000
740.432068	181.000000
740.469727	183.000000
740.507507	192.000000
740.545288	190.000000
740.583008	189.000000
740.620789	192.000000
740.658569	180.000000
740.696228	187.000000
740.734009	189.000000
740.771790	179.000000
740.809509	188.000000
740.847229	184.000000
740.884949	183.000000
740.922729	181.000000
740.960449	182.000000
740.998169	182.000000
741.035950	182.000000
741.073669	185.000000
741.111389	184.000000
741.149170	199.000000
741.186890	194.000000
741.224609	193.000000
741.262329	191.000000
741.300110	201.000000
741.337769	189.000000
741.375549	187.000000
741.413208	187.000000
741.450989	189.000000
741.488708	182.000000
741.526367	189.000000
741.564148	190.000000
741.601868	190.000000
741.639526	190.000000
741.677307	192.000000
741.715027	189.000000
741.752686	180.000000
741.790466	194.000000
741.828186	192.000000
741.865845	182.000000
741.903564	182.000000
741.941345	189.000000
741.979004	184.000000
742.016724	193.000000
742.054382	191.000000
742.092102	196.000000
742.129822	182.000000
742.167480	185.000000
742.205200	185.000000
742.242920	189.000000
742.280640	192.000000
742.318359	182.000000
742.356079	184.000000
742.393738	194.000000
742.431396	184.000000
742.469116	193.000000
742.506775	177.000000
742.544495	192.000000
742.582214	191.000000
742.619873	191.000000
742.657593	190.000000
742.695251	189.000000
742.732971	186.000000
742.770630	189.000000
742.808289	188.000000
742.846008	189.000000
742.883728	187.000000
742.921326	186.000000
742.959045	188.000000
742.996765	188.000000
743.034424	186.000000
743.072083	188.000000
743.109802	185.000000
743.147400	186.000000
743.185120	187.000000
743.222839	187.000000
743.260437	192.000000
743.298157	193.000000
743.335754	173.000000
743.373474	186.000000
743.411133	184.000000
743.448792	189.000000
743.486450	189.000000
743.524170	179.000000
743.561768	187.000000
743.599487	199.000000
743.637146	199.000000
743.674744	183.000000
743.712463	185.000000
743.750122	186.000000
743.787720	187.000000
743.825439	181.000000
743.863037	187.000000
743.900696	189.000000
743.938416	217.000000
743.976013	186.000000
744.013672	196.000000
744.051331	188.000000
744.088928	197.000000
744.126587	190.000000
744.164307	193.000000
744.201904	183.000000
744.239563	190.000000
744.277222	189.000000
744.314819	184.000000
744.352478	189.000000
744.390137	194.000000
744.427734	185.000000
744.465393	188.000000
744.502991	185.000000
744.540649	191.000000
744.578308	184.000000
744.615906	185.000000
744.653564	178.000000
744.691223	191.000000
744.728821	183.000000
744.766418	193.000000
744.804077	188.000000
744.841675	188.000000
744.879333	177.000000
744.916992	184.000000
744.954529	185.000000
744.992187	200.000000
745.029785	184.000000
745.067444	187.000000
745.105042	191.000000
745.142639	189.000000
745.180298	198.000000
745.217896	191.000000
745.255493	184.000000
745.293152	197.000000
745.330750	195.000000
745.368347	195.000000
745.405945	191.000000
745.443604	187.000000
745.481140	195.000000
745.518799	192.000000
745.556396	192.000000
745.593994	192.000000
745.631592	190.000000
745.669189	179.000000
745.706787	190.000000
745.744385	184.000000
745.781982	195.000000
745.819580	186.000000
745.857178	188.000000
745.894775	187.000000
745.932373	188.000000
745.969971	189.000000
746.007568	185.000000
746.045166	194.000000
746.082764	193.000000
746.120300	192.000000
746.157898	190.000000
746.195557	192.000000
746.233093	184.000000
746.270691	188.000000
746.308228	194.000000
746.345825	192.000000
746.383423	189.000000
746.420959	184.000000
746.458557	186.000000
746.496155	185.000000
746.533691	185.000000
746.571289	185.000000
746.608887	190.000000
746.646423	189.000000
746.684021	189.000000
746.721619	185.000000
746.759155	192.000000
746.796753	185.000000
746.834351	181.000000
746.871826	183.000000
746.909424	200.000000
746.946960	184.000000
746.984558	188.000000
747.022156	193.000000
747.059631	193.000000
747.097229	194.000000
747.134827	188.000000
747.172363	195.000000
747.209900	191.000000
747.247498	188.000000
747.285034	192.000000
747.322571	193.000000
747.360168	186.000000
747.397644	179.000000
747.435242	193.000000
747.472778	199.000000
747.510315	185.000000
747.547913	188.000000
747.585388	195.000000
747.622925	188.000000
747.660522	179.000000
747.697998	187.000000
747.735596	185.000000
747.773132	188.000000
747.810669	189.000000
747.848206	190.000000
747.885742	186.000000
747.923279	185.000000
747.960815	186.000000
747.998352	191.000000
748.035889	188.000000
748.073425	193.000000
748.110901	188.000000
748.148437	186.000000
748.185974	185.000000
748.223511	199.000000
748.261047	188.000000
748.298584	190.000000
748.336060	184.000000
748.373596	190.000000
748.411133	203.000000
748.448608	183.000000
748.486145	193.000000
748.523682	196.000000
748.561218	193.000000
748.598755	186.000000
748.636292	187.000000
748.673706	190.000000
748.711243	196.000000
748.748718	187.000000
748.786255	186.000000
748.823792	188.000000
748.861267	177.000000
748.898804	193.000000
748.936340	192.000000
748.973816	183.000000
749.011292	196.000000
749.048828	190.000000
749.086304	190.000000
749.123840	207.000000
749.161316	185.000000
749.198792	195.000000
749.236328	200.000000
749.273743	191.000000
749.311279	184.000000
749.348816	194.000000
749.386230	193.000000
749.423767	177.000000
749.461304	193.000000
749.498718	189.000000
749.536255	195.000000
749.573730	199.000000
749.611206	195.000000
749.648682	189.000000
749.686218	190.000000
749.723633	189.000000
749.761169	187.000000
749.798645	183.000000
749.836060	188.000000
749.873596	180.000000
749.911011	193.000000
749.948547	194.000000
749.986023	187.000000
750.023437	185.000000
750.060913	182.000000
750.098450	183.000000
750.135864	187.000000
750.173340	191.000000
750.210815	197.000000
750.248291	183.000000
750.285767	191.000000
750.323242	192.000000
750.360657	193.000000
750.398132	183.000000
750.435608	191.000000
750.473022	185.000000
750.510498	187.000000
750.547974	180.000000
750.585449	186.000000
750.622925	174.000000
750.660339	195.000000
750.697815	187.000000
750.735291	186.000000
750.772644	191.000000
750.810120	192.000000
750.847595	190.000000
750.885010	183.000000
750.922485	192.000000
750.959961	191.000000
750.997375	194.000000
751.034851	197.000000
751.072266	192.000000
751.109680	180.000000
751.147156	195.000000
751.184570	193.000000
751.221985	190.000000
751.259460	180.000000
751.296875	191.000000
751.334290	186.000000
751.371765	195.000000
751.409180	193.000000
751.446594	193.000000
751.484070	196.000000
751.521423	191.000000
751.558899	187.000000
751.596375	199.000000
751.633728	197.000000
751.671204	197.000000
751.708618	185.000000
751.746033	195.000000
751.783447	182.000000
751.820801	187.000000
751.858276	186.000000
751.895691	189.000000
751.933105	187.000000
751.970520	190.000000
752.007935	179.000000
752.045349	194.000000
752.082764	185.000000
752.120178	185.000000
752.157532	191.000000
752.195007	188.000000
752.232422	185.000000
752.269775	193.000000
752.307190	192.000000
752.344543	182.000000
752.382019	188.000000
752.419434	189.000000
752.456787	186.000000
752.494202	195.000000
752.531616	191.000000
752.568970	189.000000
752.606384	186.000000
752.643799	192.000000
752.681152	190.000000
752.718567	192.000000
752.755981	183.000000
752.793335	192.000000
752.830750	180.000000
752.868164	196.000000
752.905518	181.000000
752.942932	194.000000
752.980225	185.000000
753.017639	196.000000
753.055054	190.000000
753.092407	187.000000
753.129822	193.000000
753.167175	198.000000
753.204529	182.000000
753.241943	188.000000
753.279358	185.000000
753.316650	194.000000
753.354065	190.000000
753.391479	193.000000
753.428772	198.000000
753.466187	190.000000
753.503479	188.000000
753.540894	187.000000
753.578308	183.000000
753.615601	182.000000
753.653015	190.000000
753.690369	182.000000
753.727722	187.000000
753.765076	181.000000
753.802490	181.000000
753.839783	176.000000
753.877136	188.000000
753.914551	202.000000
753.951843	183.000000
753.989258	189.000000
754.026611	191.000000
754.063904	188.000000
754.101257	184.000000
754.138611	179.000000
754.175964	188.000000
754.213318	201.000000
754.250610	181.000000
754.288025	189.000000
754.325378	184.000000
754.362671	189.000000
754.400024	189.000000
754.437378	202.000000
754.474670	198.000000
754.512085	184.000000
754.549438	193.000000
754.586731	184.000000
754.624084	188.000000
754.661438	182.000000
754.698730	196.000000
754.736084	185.000000
754.773376	189.000000
754.810730	188.000000
754.848083	184.000000
754.885315	191.000000
754.922668	181.000000
754.960022	184.000000
754.997314	190.000000
755.034668	191.000000
755.072021	193.000000
755.109253	189.000000
755.146606	194.000000
755.183960	190.000000
755.221252	200.000000
755.258545	193.000000
755.295898	199.000000
755.333191	201.000000
755.370544	195.000000
755.407776	191.000000
755.445129	190.000000
755.482422	196.000000
755.519714	188.000000
755.557068	185.000000
755.594360	181.000000
755.631653	199.000000
755.668945	201.000000
755.706299	197.000000
755.743530	203.000000
755.780884	202.000000
755.818176	197.000000
755.855408	199.000000
755.892761	194.000000
755.930054	195.000000
755.967346	196.000000
756.004639	196.000000
756.041870	191.000000
756.079224	201.000000
756.116516	189.000000
756.153748	200.000000
756.191040	197.000000
756.228394	204.000000
756.265625	191.000000
756.302917	197.000000
756.340210	191.000000
756.377441	199.000000
756.414795	206.000000
756.452087	199.000000
756.489319	189.000000
756.526611	202.000000
756.563843	197.000000
756.601135	206.000000
756.638428	206.000000
756.675659	195.000000
756.712952	200.000000
756.750244	202.000000
756.787476	201.000000
756.824768	206.000000
756.862061	194.000000
756.899292	243.000000
756.936584	200.000000
756.973816	210.000000
757.011047	213.000000
757.048340	200.000000
757.085632	203.000000
757.122864	217.000000
757.160156	197.000000
757.197327	202.000000
757.234619	207.000000
757.271912	197.000000
757.309082	208.000000
757.346375	197.000000
757.383667	205.000000
757.420837	204.000000
757.458130	205.000000
757.495422	199.000000
757.532593	207.000000
757.569885	194.000000
757.607117	200.000000
757.644348	205.000000
757.681580	219.000000
757.718811	187.000000
757.756042	203.000000
757.793335	197.000000
757.830505	209.000000
757.867798	201.000000
757.905029	202.000000
757.942200	202.000000
757.979492	200.000000
758.016724	199.000000
758.053894	198.000000
758.091187	223.000000
758.128418	205.000000
758.165588	200.000000
758.202820	217.000000
758.240112	204.000000
758.277283	209.000000
758.314514	207.000000
758.351685	205.000000
758.388916	209.000000
758.426147	217.000000
758.463379	213.000000
758.500610	211.000000
758.537842	209.000000
758.575012	213.000000
758.612244	205.000000
758.649475	222.000000
758.686646	204.000000
758.723877	215.000000
758.761108	223.000000
758.798279	207.000000
758.835510	210.000000
758.872742	217.000000
758.909851	214.000000
758.947083	211.000000
758.984253	212.000000
759.021484	215.000000
759.058716	216.000000
759.095886	217.000000
759.133057	215.000000
759.170288	215.000000
759.207458	211.000000
759.244690	222.000000
759.281860	222.000000
759.319031	217.000000
759.356262	212.000000
759.393433	209.000000
759.430603	218.000000
759.467773	211.000000
759.505005	219.000000
759.542175	217.000000
759.579346	212.000000
759.616516	214.000000
759.653687	219.000000
759.690918	211.000000
759.728027	219.000000
759.765259	213.000000
759.802429	219.000000
759.839539	214.000000
759.876770	224.000000
759.913940	225.000000
759.951111	217.000000
759.988281	218.000000
760.025452	216.000000
760.062561	208.000000
760.099792	227.000000
760.136963	217.000000
760.174072	217.000000
760.211243	212.000000
760.248413	218.000000
760.285583	210.000000
760.322754	234.000000
760.359863	229.000000
760.397034	224.000000
760.434204	221.000000
760.471375	226.000000
760.508545	218.000000
760.545715	227.000000
760.582825	215.000000
760.619995	226.000000
760.657166	215.000000
760.694275	233.000000
760.731445	223.000000
760.768555	228.000000
760.805664	230.000000
760.842834	223.000000
760.879944	225.000000
760.917114	223.000000
760.954285	225.000000
760.991394	219.000000
761.028564	235.000000
761.065674	227.000000
761.102783	224.000000
761.139954	234.000000
761.177124	237.000000
761.214172	235.000000
761.251343	230.000000
761.288452	227.000000
761.325562	239.000000
761.362732	222.000000
761.399841	231.000000
761.436951	230.000000
761.474121	226.000000
761.511169	227.000000
761.548340	242.000000
761.585449	240.000000
761.622559	240.000000
761.659668	236.000000
761.696838	247.000000
761.733887	234.000000
761.771057	234.000000
761.808167	238.000000
761.845276	247.000000
761.882385	251.000000
761.919434	245.000000
761.956604	259.000000
761.993713	241.000000
762.030762	247.000000
762.067871	246.000000
762.105042	240.000000
762.142090	249.000000
762.179199	240.000000
762.216309	249.000000
762.253418	261.000000
762.290527	257.000000
762.327637	257.000000
762.364685	247.000000
762.401794	258.000000
762.438904	257.000000
762.475952	249.000000
762.513062	246.000000
762.550110	244.000000
762.587219	267.000000
762.624329	261.000000
762.661377	257.000000
762.698486	258.000000
762.735596	258.000000
762.772644	249.000000
762.809753	246.000000
762.846863	255.000000
762.883911	259.000000
762.921021	259.000000
762.958069	254.000000
762.995117	265.000000
763.032227	262.000000
763.069336	255.000000
763.106323	256.000000
763.143433	253.000000
763.180481	260.000000
763.217590	265.000000
763.254639	255.000000
763.291687	260.000000
763.328735	269.000000
763.365845	260.000000
763.402893	260.000000
763.439941	268.000000
763.477051	273.000000
763.514038	272.000000
763.551147	260.000000
763.588196	264.000000
763.625244	263.000000
763.662292	273.000000
763.699402	274.000000
763.736389	270.000000
763.773499	275.000000
763.810486	271.000000
763.847534	269.000000
763.884644	280.000000
763.921631	273.000000
763.958679	284.000000
763.995728	280.000000
764.032776	286.000000
764.069824	265.000000
764.106873	283.000000
764.143860	283.000000
764.180969	272.000000
764.218018	284.000000
764.255005	278.000000
764.292053	276.000000
764.329102	299.000000
764.366089	295.000000
764.403137	293.000000
764.440125	284.000000
764.477173	293.000000
764.514221	291.000000
764.551208	295.000000
764.588257	286.000000
764.625305	293.000000
764.662292	297.000000
764.699341	300.000000
764.736389	295.000000
764.773376	308.000000
764.810425	299.000000
764.847473	306.000000
764.884399	304.000000
764.921448	315.000000
764.958435	309.000000
764.995483	296.000000
765.032532	311.000000
765.069458	298.000000
765.106506	304.000000
765.143555	297.000000
765.180481	305.000000
765.217529	309.000000
765.254578	300.000000
765.291504	308.000000
765.328552	311.000000
765.365540	309.000000
765.402527	321.000000
765.439575	304.000000
765.476501	307.000000
765.513550	300.000000
765.550537	312.000000
765.587463	308.000000
765.624512	305.000000
765.661499	290.000000
765.698486	313.000000
765.735474	298.000000
765.772461	315.000000
765.809448	313.000000
765.846436	311.000000
765.883423	321.000000
765.920410	316.000000
765.957397	320.000000
765.994385	323.000000
766.031311	332.000000
766.068359	320.000000
766.105286	312.000000
766.142273	325.000000
766.179260	319.000000
766.216187	321.000000
766.253174	318.000000
766.290161	327.000000
766.327148	337.000000
766.364136	336.000000
766.401123	346.000000
766.438049	325.000000
766.475037	347.000000
766.512024	340.000000
766.548950	350.000000
766.585937	356.000000
766.622864	355.000000
766.659790	343.000000
766.696777	336.000000
766.733704	346.000000
766.770691	338.000000
766.807678	355.000000
766.844604	353.000000
766.881531	350.000000
766.918518	362.000000
766.955444	364.000000
766.992432	355.000000
767.029358	354.000000
767.066284	363.000000
767.103271	360.000000
767.140198	396.000000
767.177124	379.000000
767.214050	369.000000
767.251038	370.000000
767.287964	369.000000
767.324890	361.000000
767.361816	370.000000
767.398743	382.000000
767.435730	370.000000
767.472595	381.000000
767.509583	388.000000
767.546509	375.000000
767.583374	383.000000
767.620361	371.000000
767.657288	385.000000
767.694214	378.000000
767.731140	390.000000
767.768066	384.000000
767.804993	381.000000
767.841919	372.000000
767.878845	389.000000
767.915710	391.000000
767.952698	385.000000
767.989563	396.000000
768.026489	397.000000
768.063416	393.000000
768.100281	387.000000
768.137207	406.000000
768.174133	407.000000
768.211060	399.000000
768.247986	407.000000
768.284912	401.000000
768.321777	406.000000
768.358704	400.000000
768.395630	411.000000
768.432495	408.000000
768.469421	405.000000
768.506348	408.000000
768.543152	421.000000
768.580078	419.000000
768.616943	423.000000
768.653870	427.000000
768.690796	429.000000
768.727661	421.000000
768.764587	421.000000
768.801453	415.000000
768.838318	431.000000
768.875244	428.000000
768.912109	442.000000
768.948975	426.000000
768.985901	427.000000
769.022766	432.000000
769.059631	420.000000
769.096558	437.000000
769.133362	429.000000
769.170288	442.000000
769.207214	430.000000
769.244019	436.000000
769.280945	443.000000
769.317810	454.000000
769.354675	447.000000
769.391541	457.000000
769.428406	454.000000
769.465271	461.000000
769.502136	451.000000
769.539062	458.000000
769.575867	460.000000
769.612732	460.000000
769.649597	466.000000
769.686462	463.000000
769.723328	459.000000
769.760193	465.000000
769.797058	468.000000
769.833923	474.000000
769.870728	475.000000
769.907593	475.000000
769.944519	474.000000
769.981323	483.000000
770.018188	479.000000
770.055054	482.000000
770.091858	480.000000
770.128723	485.000000
770.165588	489.000000
770.202393	481.000000
770.239258	498.000000
770.276062	488.000000
770.312927	487.000000
770.349792	499.000000
770.386597	490.000000
770.423462	495.000000
770.460327	525.000000
770.497131	498.000000
770.533997	496.000000
770.570862	506.000000
770.607605	511.000000
770.644470	501.000000
770.681335	519.000000
770.718140	508.000000
770.754944	507.000000
770.791809	504.000000
770.828613	505.000000
770.865479	505.000000
770.902222	517.000000
770.939087	510.000000
770.975952	506.000000
771.012695	502.000000
771.049561	526.000000
771.086365	514.000000
771.123169	525.000000
771.159973	513.000000
771.196838	520.000000
771.233582	522.000000
771.270447	526.000000
771.307251	521.000000
771.344055	535.000000
771.380859	529.000000
771.417664	527.000000
771.454468	545.000000
771.491272	540.000000
771.528076	537.000000
771.564880	543.000000
771.601685	543.000000
771.638428	544.000000
771.675293	551.000000
771.712097	535.000000
771.748840	549.000000
771.785645	549.000000
771.822449	550.000000
771.859253	563.000000
771.896057	558.000000
771.932861	577.000000
771.969604	563.000000
772.006409	557.000000
772.043213	573.000000
772.079956	573.000000
772.116760	563.000000
772.153503	572.000000
772.190308	597.000000
772.227112	589.000000
772.263855	573.000000
772.300659	580.000000
772.337463	591.000000
772.374207	582.000000
772.411011	591.000000
772.447754	580.000000
772.484497	596.000000
772.521301	587.000000
772.558105	593.000000
772.594849	590.000000
772.631592	610.000000
772.668396	597.000000
772.705139	612.000000
772.741882	594.000000
772.778625	618.000000
772.815430	622.000000
772.852173	619.000000
772.888916	628.000000
772.925720	637.000000
772.962463	645.000000
772.999207	635.000000
773.035950	644.000000
773.072754	656.000000
773.109436	647.000000
773.146240	644.000000
773.182922	641.000000
773.219727	658.000000
773.256470	647.000000
773.293152	651.000000
773.329956	659.000000
773.366699	658.000000
773.403381	645.000000
773.440186	663.000000
773.476929	654.000000
773.513611	667.000000
773.550354	673.000000
773.587158	665.000000
773.623840	664.000000
773.660583	660.000000
773.697327	676.000000
773.734009	677.000000
773.770813	690.000000
773.807495	685.000000
773.844238	669.000000
773.880981	670.000000
773.917664	685.000000
773.954407	704.000000
773.991150	699.000000
774.027832	711.000000
774.064575	701.000000
774.101318	701.000000
774.138000	701.000000
774.174744	704.000000
774.211487	718.000000
774.248108	718.000000
774.284851	709.000000
774.321594	713.000000
774.358276	718.000000
774.395020	735.000000
774.431702	748.000000
774.468384	732.000000
774.505127	739.000000
774.541809	728.000000
774.578491	737.000000
774.615234	730.000000
774.651917	735.000000
774.688599	741.000000
774.725342	765.000000
774.762024	745.000000
774.798706	750.000000
774.835449	758.000000
774.872070	777.000000
774.908813	770.000000
774.945496	775.000000
774.982178	767.000000
775.018860	760.000000
775.055542	762.000000
775.092224	777.000000
775.128967	798.000000
775.165588	803.000000
775.202271	774.000000
775.239014	784.000000
775.275635	777.000000
775.312317	778.000000
775.349060	788.000000
775.385681	814.000000
775.422363	810.000000
775.459045	805.000000
775.495667	792.000000
775.532410	796.000000
775.569092	802.000000
775.605713	822.000000
775.642395	815.000000
775.679016	811.000000
775.715698	805.000000
775.752380	806.000000
775.789001	804.000000
775.825684	825.000000
775.862366	825.000000
775.898987	840.000000
775.935669	820.000000
775.972351	816.000000
776.008972	837.000000
776.045654	839.000000
776.082336	856.000000
776.118958	844.000000
776.155640	840.000000
776.192322	826.000000
776.228882	839.000000
776.265564	839.000000
776.302185	849.000000
776.338867	856.000000
776.375488	850.000000
776.412109	837.000000
776.448792	855.000000
776.485413	862.000000
776.522034	863.000000
776.558716	866.000000
776.595337	855.000000
776.631958	856.000000
776.668579	845.000000
776.705261	861.000000
776.741882	868.000000
776.778503	847.000000
776.815186	861.000000
776.851746	862.000000
776.888367	861.000000
776.924988	866.000000
776.961609	861.000000
776.998291	866.000000
777.034851	860.000000
777.071472	871.000000
777.108154	867.000000
777.144714	886.000000
777.181335	885.000000
777.218018	872.000000
777.254578	899.000000
777.291199	901.000000
777.327759	908.000000
777.364380	912.000000
777.401062	936.000000
777.437622	942.000000
777.474243	929.000000
777.510864	955.000000
777.547424	936.000000
777.584045	934.000000
777.620667	945.000000
777.657227	939.000000
777.693848	942.000000
777.730469	962.000000
777.767029	951.000000
777.803650	953.000000
777.840271	942.000000
777.876831	929.000000
777.913452	953.000000
777.950012	940.000000
777.986633	943.000000
778.023193	946.000000
778.059753	937.000000
778.096375	937.000000
778.132996	959.000000
778.169556	951.000000
778.206116	958.000000
778.242737	965.000000
778.279297	957.000000
778.315857	955.000000
778.352478	973.000000
778.389038	975.000000
778.425598	980.000000
778.462219	1001.000000
778.498718	998.000000
778.535339	986.000000
778.571838	991.000000
778.608459	1007.000000
778.645020	988.000000
778.681580	995.000000
778.718140	984.000000
778.754761	988.000000
778.791260	981.000000
778.827881	1005.000000
778.864441	994.000000
778.900940	1013.000000
778.937561	1025.000000
778.974121	1014.000000
779.010620	1005.000000
779.047241	1035.000000
779.083801	1033.000000
779.120300	1030.000000
779.156860	1054.000000
779.193359	1059.000000
779.229980	1067.000000
779.266541	1081.000000
779.303040	1071.000000
779.339600	1073.000000
779.376160	1063.000000
779.412659	1079.000000
779.449219	1073.000000
779.485779	1082.000000
779.522278	1073.000000
779.558838	1077.000000
779.595398	1084.000000
779.631897	1088.000000
779.668457	1085.000000
779.705017	1091.000000
779.741516	1068.000000
779.778076	1053.000000
779.814575	1054.000000
779.851074	1069.000000
779.887634	1082.000000
779.924133	1099.000000
779.960693	1084.000000
779.997253	1097.000000
780.033691	1110.000000
780.070251	1101.000000
780.106812	1131.000000
780.143250	1136.000000
780.179810	1126.000000
780.216370	1125.000000
780.252808	1111.000000
780.289368	1125.000000
780.325867	1145.000000
780.362366	1146.000000
780.398865	1169.000000
780.435364	1145.000000
780.471863	1156.000000
780.508423	1145.000000
780.544861	1164.000000
780.581421	1150.000000
780.617920	1163.000000
780.654419	1171.000000
780.690918	1165.000000
780.727417	1157.000000
780.763916	1163.000000
780.800415	1186.000000
780.836914	1182.000000
780.873352	1203.000000
780.909912	1201.000000
780.946411	1182.000000
780.982849	1177.000000
781.019348	1189.000000
781.055786	1185.000000
781.092346	1187.000000
781.128845	1192.000000
781.165283	1198.000000
781.201782	1197.000000
781.238281	1204.000000
781.274719	1213.000000
781.311218	1215.000000
781.347717	1235.000000
781.384155	1229.000000
781.420654	1233.000000
781.457092	1237.000000
781.493591	1239.000000
781.530090	1234.000000
781.566528	1237.000000
781.602966	1236.000000
781.639465	1233.000000
781.675903	1216.000000
781.712402	1219.000000
781.748901	1237.000000
781.785278	1212.000000
781.821777	1221.000000
781.858276	1214.000000
781.894714	1227.000000
781.931152	1215.000000
781.967651	1243.000000
782.004089	1218.000000
782.040527	1219.000000
782.076965	1208.000000
782.113403	1216.000000
782.149902	1209.000000
782.186340	1212.000000
782.222778	1218.000000
782.259277	1209.000000
782.295654	1204.000000
782.332092	1219.000000
782.368591	1210.000000
782.404968	1234.000000
782.441467	1246.000000
782.477905	1241.000000
782.514282	1226.000000
782.550781	1263.000000
782.587219	1251.000000
782.623596	1254.000000
782.660095	1262.000000
782.696472	1232.000000
782.732910	1217.000000
782.769348	1168.000000
782.805786	1109.000000
782.842224	1043.000000
782.878662	930.000000
782.915039	820.000000
782.951477	695.000000
782.987915	570.000000
783.024292	467.000000
783.060730	419.000000
783.097168	400.000000
783.133545	397.000000
783.169983	415.000000
783.206421	432.000000
783.242798	473.000000
783.279236	516.000000
783.315613	617.000000
783.352051	719.000000
783.388489	820.000000
783.424866	891.000000
783.461304	967.000000
783.497681	1022.000000
783.534058	1077.000000
783.570496	1105.000000
783.606934	1142.000000
783.643250	1187.000000
783.679687	1231.000000
783.716125	1229.000000
783.752441	1250.000000
783.788879	1289.000000
783.825317	1306.000000
783.861633	1325.000000
783.898071	1321.000000
783.934448	1333.000000
783.970825	1359.000000
784.007263	1347.000000
784.043579	1375.000000
784.080017	1385.000000
784.116394	1358.000000
784.152710	1346.000000
784.189148	1367.000000
784.225525	1365.000000
784.261902	1374.000000
784.298279	1367.000000
784.334656	1351.000000
784.371033	1329.000000
784.407410	1340.000000
784.443787	1320.000000
784.480164	1337.000000
784.516541	1338.000000
784.552856	1332.000000
784.589233	1319.000000
784.625610	1310.000000
784.661987	1344.000000
784.698364	1367.000000
784.734741	1362.000000
784.771057	1373.000000
784.807434	1402.000000
784.843811	1390.000000
784.880127	1367.000000
784.916504	1414.000000
784.952881	1445.000000
784.989197	1453.000000
785.025574	1464.000000
785.061951	1475.000000
785.098267	1488.000000
785.134644	1472.000000
785.170959	1491.000000
785.207275	1515.000000
785.243652	1515.000000
785.279968	1477.000000
785.316345	1463.000000
785.352722	1451.000000
785.388977	1444.000000
785.425354	1425.000000
785.461731	1427.000000
785.498047	1401.000000
785.534363	1378.000000
785.570679	1336.000000
785.606995	1324.000000
785.643372	1339.000000
785.679687	1360.000000
785.716003	1348.000000
785.752380	1348.000000
785.788635	1327.000000
785.825012	1340.000000
785.861328	1353.000000
785.897644	1381.000000
785.933960	1415.000000
785.970337	1430.000000
786.006592	1450.000000
786.042908	1470.000000
786.079285	1473.000000
786.115540	1515.000000
786.151855	1555.000000
786.188171	1588.000000
786.224487	1611.000000
786.260803	1611.000000
786.297119	1607.000000
786.333435	1599.000000
786.369751	1606.000000
786.406006	1603.000000
786.442322	1581.000000
786.478638	1534.000000
786.514954	1517.000000
786.551270	1471.000000
786.587585	1461.000000
786.623840	1441.000000
786.660156	1435.000000
786.696472	1416.000000
786.732727	1376.000000
786.769043	1377.000000
786.805298	1345.000000
786.841614	1366.000000
786.877930	1405.000000
786.914124	1401.000000
786.950439	1416.000000
786.986755	1422.000000
787.023010	1447.000000
787.059326	1440.000000
787.095642	1480.000000
787.131836	1517.000000
787.168152	1537.000000
787.204468	1555.000000
787.240723	1561.000000
787.276978	1573.000000
787.313293	1608.000000
787.349548	1622.000000
787.385803	1626.000000
787.422058	1612.000000
787.458313	1611.000000
787.494629	1577.000000
787.530823	1576.000000
787.567139	1561.000000
787.603455	1554.000000
787.639648	1533.000000
787.675903	1513.000000
787.712219	1490.000000
787.748413	1471.000000
787.784729	1457.000000
787.820984	1449.000000
787.857178	1450.000000
787.893494	1449.000000
787.929749	1447.000000
787.965942	1450.000000
788.002258	1465.000000
788.038452	1465.000000
788.074707	1467.000000
788.110962	1487.000000
788.147217	1473.000000
788.183472	1493.000000
788.219727	1470.000000
788.255920	1491.000000
788.292175	1534.000000
788.328430	1524.000000
788.364624	1532.000000
788.400879	1547.000000
788.437134	1551.000000
788.473328	1531.000000
788.509583	1538.000000
788.545837	1537.000000
788.582031	1544.000000
788.618286	1557.000000
788.654480	1557.000000
788.690735	1535.000000
788.726990	1556.000000
788.763184	1553.000000
788.799377	1561.000000
788.835632	1558.000000
788.871826	1564.000000
788.908081	1553.000000
788.944336	1528.000000
788.980469	1541.000000
789.016724	1547.000000
789.052979	1553.000000
789.089111	1559.000000
789.125366	1551.000000
789.161621	1548.000000
789.197754	1541.000000
789.234009	1522.000000
789.270142	1537.000000
789.306396	1528.000000
789.342590	1527.000000
789.378784	1521.000000
789.414978	1498.000000
789.451233	1489.000000
789.487366	1488.000000
789.523621	1501.000000
789.559814	1515.000000
789.595947	1534.000000
789.632202	1526.000000
789.668335	1501.000000
789.704529	1498.000000
789.740784	1520.000000
789.776917	1536.000000
789.813110	1547.000000
789.849304	1561.000000
789.885498	1563.000000
789.921692	1562.000000
789.957886	1558.000000
789.994019	1551.000000
790.030212	1577.000000
790.066406	1607.000000
790.102539	1589.000000
790.138733	1570.000000
790.174927	1558.000000
790.211060	1575.000000
790.247253	1565.000000
790.283386	1591.000000
790.319580	1593.000000
790.355774	1547.000000
790.391907	1439.000000
790.428101	1284.000000
790.464294	1097.000000
790.500427	1006.000000
790.536621	1000.000000
790.572754	1078.000000
790.608887	1187.000000
790.645081	1274.000000
790.681274	1351.000000
790.717346	1414.000000
790.753540	1490.000000
790.789734	1520.000000
790.825867	1534.000000
790.862000	1533.000000
790.898132	1539.000000
790.934265	1521.000000
790.970459	1543.000000
791.006592	1579.000000
791.042725	1591.000000
791.078918	1585.000000
791.114990	1555.000000
791.151184	1556.000000
791.187317	1563.000000
791.223389	1593.000000
791.259583	1579.000000
791.295715	1587.000000
791.331848	1579.000000
791.367981	1570.000000
791.404114	1578.000000
791.440247	1573.000000
791.476379	1580.000000
791.512451	1581.000000
791.548584	1609.000000
791.584778	1579.000000
791.620850	1575.000000
791.656982	1572.000000
791.693115	1577.000000
791.729187	1598.000000
791.765381	1609.000000
791.801514	1610.000000
791.837585	1595.000000
791.873718	1589.000000
791.909851	1594.000000
791.945923	1627.000000
791.982056	1624.000000
792.018188	1616.000000
792.054260	1599.000000
792.090393	1614.000000
792.126465	1576.000000
792.162598	1588.000000
792.198669	1604.000000
792.234741	1626.000000
792.270874	1598.000000
792.307007	1580.000000
792.343079	1571.000000
792.379150	1550.000000
792.415283	1572.000000
792.451355	1577.000000
792.487488	1576.000000
792.523560	1580.000000
792.559631	1558.000000
792.595764	1532.000000
792.631836	1546.000000
792.667908	1548.000000
792.703979	1571.000000
792.740051	1550.000000
792.776184	1568.000000
792.812256	1537.000000
792.848328	1526.000000
792.884399	1538.000000
792.920471	1551.000000
792.956543	1569.000000
792.992615	1577.000000
793.028748	1557.000000
793.064758	1542.000000
793.100830	1537.000000
793.136963	1556.000000
793.172974	1561.000000
793.209045	1581.000000
793.245178	1591.000000
793.281189	1574.000000
793.317261	1557.000000
793.353271	1548.000000
793.389404	1549.000000
793.425476	1566.000000
793.461487	1543.000000
793.497559	1560.000000
793.533630	1546.000000
793.569641	1526.000000
793.605713	1501.000000
793.641785	1505.000000
793.677795	1527.000000
793.713867	1526.000000
793.749878	1529.000000
793.785950	1524.000000
793.822021	1532.000000
793.858032	1534.000000
793.894104	1539.000000
793.930176	1540.000000
793.966187	1554.000000
794.002258	1549.000000
794.038269	1561.000000
794.074280	1544.000000
794.110352	1549.000000
794.146423	1543.000000
794.182373	1576.000000
794.218445	1567.000000
794.254517	1569.000000
794.290466	1530.000000
794.326538	1513.000000
794.362549	1514.000000
794.398560	1519.000000
794.434631	1511.000000
794.470581	1488.000000
794.506653	1472.000000
794.542664	1462.000000
794.578674	1466.000000
794.614685	1463.000000
794.650757	1453.000000
794.686707	1477.000000
794.722778	1472.000000
794.758789	1486.000000
794.794739	1464.000000
794.830811	1490.000000
794.866821	1494.000000
794.902771	1517.000000
794.938843	1495.000000
794.974792	1530.000000
795.010803	1515.000000
795.046814	1512.000000
795.082825	1466.000000
795.118835	1498.000000
795.154846	1480.000000
795.190796	1504.000000
795.226807	1490.000000
795.262817	1481.000000
795.298767	1456.000000
795.334778	1461.000000
795.370850	1454.000000
795.406799	1476.000000
795.442810	1476.000000
795.478821	1465.000000
795.514709	1424.000000
795.550720	1458.000000
795.586670	1422.000000
795.622681	1431.000000
795.658691	1439.000000
795.694641	1463.000000
795.730652	1457.000000
795.766663	1460.000000
795.802551	1453.000000
795.838562	1465.000000
795.874573	1477.000000
795.910522	1485.000000
795.946472	1499.000000
795.982483	1486.000000
796.018433	1472.000000
796.054382	1448.000000
796.090393	1438.000000
796.126282	1424.000000
796.162292	1432.000000
796.198242	1423.000000
796.234192	1435.000000
796.270203	1402.000000
796.306091	1400.000000
796.342041	1417.000000
796.378052	1409.000000
796.413940	1430.000000
796.449951	1430.000000
796.485901	1421.000000
796.521790	1411.000000
796.557800	1406.000000
796.593689	1400.000000
796.629639	1414.000000
796.665649	1444.000000
796.701599	1433.000000
796.737488	1424.000000
796.773437	1422.000000
796.809387	1426.000000
796.845337	1441.000000
796.881287	1462.000000
796.917175	1447.000000
796.953125	1435.000000
796.989075	1435.000000
797.024963	1406.000000
797.060913	1404.000000
797.096863	1419.000000
797.132751	1424.000000
797.168701	1404.000000
797.204590	1396.000000
797.240540	1354.000000
797.276489	1331.000000
797.312439	1349.000000
797.348328	1367.000000
797.384277	1388.000000
797.420166	1378.000000
797.456055	1371.000000
797.492004	1340.000000
797.527893	1344.000000
797.563843	1368.000000
797.599731	1373.000000
797.635620	1371.000000
797.671570	1394.000000
797.707520	1367.000000
797.743347	1358.000000
797.779297	1343.000000
797.815125	1361.000000
797.851074	1392.000000
797.887024	1388.000000
797.922913	1387.000000
797.958801	1365.000000
797.994690	1317.000000
798.030579	1331.000000
798.066467	1354.000000
798.102356	1343.000000
798.138245	1351.000000
798.174133	1326.000000
798.210083	1312.000000
798.245911	1304.000000
798.281799	1302.000000
798.317749	1325.000000
798.353577	1345.000000
798.389465	1334.000000
798.425293	1317.000000
798.461243	1301.000000
798.497131	1281.000000
798.532959	1305.000000
798.568848	1336.000000
798.604736	1325.000000
798.640564	1313.000000
798.676453	1287.000000
798.712402	1279.000000
798.748230	1271.000000
798.784119	1294.000000
798.820007	1290.000000
798.855835	1313.000000
798.891724	1316.000000
798.927551	1280.000000
798.963379	1284.000000
798.999268	1273.000000
799.035095	1254.000000
799.070984	1277.000000
799.106873	1268.000000
799.142700	1295.000000
799.178528	1255.000000
799.214417	1237.000000
799.250244	1269.000000
799.286133	1269.000000
799.321960	1285.000000
799.357788	1273.000000
799.393677	1256.000000
799.429504	1252.000000
799.465332	1241.000000
799.501221	1251.000000
799.537048	1259.000000
799.572876	1271.000000
799.608704	1256.000000
799.644531	1265.000000
799.680359	1249.000000
799.716248	1264.000000
799.752014	1259.000000
799.787903	1269.000000
799.823730	1275.000000
799.859558	1247.000000
799.895386	1232.000000
799.931213	1216.000000
799.967041	1227.000000
800.002869	1228.000000
800.038696	1255.000000
800.074463	1228.000000
800.110352	1235.000000
800.146179	1206.000000
800.181946	1204.000000
800.217773	1220.000000
800.253540	1198.000000
800.289429	1209.000000
800.325256	1207.000000
800.361023	1196.000000
800.396851	1191.000000
800.432678	1181.000000
800.468445	1183.000000
800.504272	1191.000000
800.540100	1187.000000
800.575867	1181.000000
800.611694	1174.000000
800.647461	1161.000000
800.683289	1149.000000
800.719116	1163.000000
800.754883	1161.000000
800.790649	1155.000000
800.826477	1150.000000
800.862244	1156.000000
800.898071	1132.000000
800.933838	1109.000000
800.969604	1113.000000
801.005432	1116.000000
801.041199	1146.000000
801.076965	1118.000000
801.112793	1088.000000
801.148560	1069.000000
801.184326	1088.000000
801.220154	1081.000000
801.255859	1080.000000
801.291687	1075.000000
801.327454	1079.000000
801.363281	1062.000000
801.398987	1058.000000
801.434814	1045.000000
801.470520	1062.000000
801.506287	1054.000000
801.542114	1039.000000
801.577820	1049.000000
801.613647	1041.000000
801.649414	1030.000000
801.685120	1039.000000
801.720886	1049.000000
801.756714	1035.000000
801.792419	1027.000000
801.828186	1010.000000
801.863892	1024.000000
801.899719	1018.000000
801.935486	1015.000000
801.971252	1016.000000
802.006958	1024.000000
802.042725	1017.000000
802.078430	1014.000000
802.114197	990.000000
802.149963	1004.000000
802.185669	1005.000000
802.221436	1011.000000
802.257202	1016.000000
802.292908	989.000000
802.328674	994.000000
802.364441	1001.000000
802.400146	991.000000
802.435913	1011.000000
802.471558	1002.000000
802.507324	995.000000
802.543091	988.000000
802.578796	996.000000
802.614502	981.000000
802.650269	1003.000000
802.685974	977.000000
802.721741	995.000000
802.757446	1008.000000
802.793152	996.000000
802.828918	988.000000
802.864624	993.000000
802.900330	996.000000
802.936035	1004.000000
802.971802	997.000000
803.007446	985.000000
803.043213	965.000000
803.078857	962.000000
803.114624	942.000000
803.150330	972.000000
803.185974	969.000000
803.221741	954.000000
803.257446	954.000000
803.293152	952.000000
803.328857	935.000000
803.364563	944.000000
803.400208	933.000000
803.435974	940.000000
803.471680	932.000000
803.507324	927.000000
803.543030	930.000000
803.578735	913.000000
803.614441	916.000000
803.650146	925.000000
803.685791	921.000000
803.721497	908.000000
803.757202	906.000000
803.792847	907.000000
803.828552	893.000000
803.864258	893.000000
803.899902	893.000000
803.935608	880.000000
803.971313	892.000000
804.006958	874.000000
804.042664	884.000000
804.078308	881.000000
804.113953	882.000000
804.149658	881.000000
804.185364	872.000000
804.221008	869.000000
804.256714	861.000000
804.292297	848.000000
804.328003	850.000000
804.363708	848.000000
804.399292	848.000000
804.434998	831.000000
804.470703	826.000000
804.506287	846.000000
804.541992	833.000000
804.577637	839.000000
804.613281	828.000000
804.648926	820.000000
804.684570	828.000000
804.720215	811.000000
804.755920	819.000000
804.791565	820.000000
804.827209	820.000000
804.862854	835.000000
804.898437	821.000000
804.934143	828.000000
804.969788	812.000000
805.005371	816.000000
805.041077	817.000000
805.076721	824.000000
805.112305	823.000000
805.147949	815.000000
805.183655	804.000000
805.219238	820.000000
805.254883	801.000000
805.290466	806.000000
805.326111	808.000000
805.361755	811.000000
805.397400	807.000000
805.432983	810.000000
805.468628	788.000000
805.504211	800.000000
805.539856	792.000000
805.575500	803.000000
805.611084	812.000000
805.646729	792.000000
805.682373	791.000000
805.717957	801.000000
805.753601	797.000000
805.789246	780.000000
805.824768	784.000000
805.860413	796.000000
805.895996	778.000000
805.931641	777.000000
805.967224	777.000000
806.002869	780.000000
806.038452	775.000000
806.074036	786.000000
806.109619	770.000000
806.145264	771.000000
806.180847	764.000000
806.216431	764.000000
806.252014	745.000000
806.287659	742.000000
806.323181	757.000000
806.358826	750.000000
806.394409	747.000000
806.429993	735.000000
806.465576	743.000000
806.501160	725.000000
806.536743	721.000000
806.572327	735.000000
806.607910	732.000000
806.643494	727.000000
806.679077	708.000000
806.714661	720.000000
806.750244	723.000000
806.785828	712.000000
806.821350	706.000000
806.856934	718.000000
806.892517	707.000000
806.928101	697.000000
806.963684	694.000000
806.999268	705.000000
807.034790	676.000000
807.070374	683.000000
807.105896	685.000000
807.141479	683.000000
807.177063	675.000000
807.212585	669.000000
807.248169	666.000000
807.283752	672.000000
807.319275	682.000000
807.354858	680.000000
807.390381	664.000000
807.425903	661.000000
807.461487	658.000000
807.497070	651.000000
807.532593	655.000000
807.568115	650.000000
807.603699	652.000000
807.639221	637.000000
807.674744	639.000000
807.710266	643.000000
807.745850	654.000000
807.781372	640.000000
807.816895	628.000000
807.852417	628.000000
807.888000	630.000000
807.923523	628.000000
807.959045	647.000000
807.994629	624.000000
808.030090	623.000000
808.065613	630.000000
808.101135	643.000000
808.136658	625.000000
808.172241	629.000000
808.207764	621.000000
808.243225	612.000000
808.278809	618.000000
808.314270	633.000000
808.349792	617.000000
808.385315	605.000000
808.420837	607.000000
808.456360	620.000000
808.491882	612.000000
808.527344	606.000000
808.562866	614.000000
808.598389	607.000000
808.633850	600.000000
808.669434	599.000000
808.704895	607.000000
808.740417	607.000000
808.775940	604.000000
808.811462	599.000000
808.846924	603.000000
808.882385	587.000000
808.917847	587.000000
808.953369	578.000000
808.988892	579.000000
809.024353	585.000000
809.059875	586.000000
809.095398	577.000000
809.130798	573.000000
809.166321	576.000000
809.201843	576.000000
809.237305	567.000000
809.272766	575.000000
809.308228	559.000000
809.343750	564.000000
809.379211	568.000000
809.414734	564.000000
809.450134	569.000000
809.485657	551.000000
809.521118	557.000000
809.556580	558.000000
809.592102	554.000000
809.627502	546.000000
809.663025	536.000000
809.698486	544.000000
809.733887	538.000000
809.769409	532.000000
809.804871	530.000000
809.840271	523.000000
809.875793	526.000000
809.911194	532.000000
809.946655	525.000000
809.982178	520.000000
810.017639	530.000000
810.053040	524.000000
810.088501	518.000000
810.123901	514.000000
810.159424	517.000000
810.194885	513.000000
810.230286	511.000000
810.265747	510.000000
810.301208	497.000000
810.336609	505.000000
810.372070	495.000000
810.407532	499.000000
810.442932	499.000000
810.478394	502.000000
810.513794	498.000000
810.549255	497.000000
810.584717	497.000000
810.620117	482.000000
810.655518	496.000000
810.690979	487.000000
810.726379	484.000000
810.761841	487.000000
810.797302	487.000000
810.832642	479.000000
810.868103	490.000000
810.903564	473.000000
810.938904	484.000000
810.974365	468.000000
811.009827	481.000000
811.045166	475.000000
811.080627	465.000000
811.115967	459.000000
811.151428	471.000000
811.186829	465.000000
811.222229	465.000000
811.257629	457.000000
811.293091	469.000000
811.328430	475.000000
811.363892	464.000000
811.399292	466.000000
811.434631	460.000000
811.470093	456.000000
811.505493	459.000000
811.540833	453.000000
811.576294	467.000000
811.611694	457.000000
811.647034	457.000000
811.682434	451.000000
811.717773	460.000000
811.753235	458.000000
811.788635	455.000000
811.823975	458.000000
811.859375	458.000000
811.894775	450.000000
811.930115	452.000000
811.965515	455.000000
812.000916	453.000000
812.036255	447.000000
812.071655	448.000000
812.106995	437.000000
812.142395	439.000000
812.177795	442.000000
812.213196	438.000000
812.248474	436.000000
812.283875	436.000000
812.319214	439.000000
812.354614	441.000000
812.390015	437.000000
812.425293	429.000000
812.460693	433.000000
812.496094	426.000000
812.531433	425.000000
812.566772	426.000000
812.602173	425.000000
812.637451	422.000000
812.672852	420.000000
812.708191	426.000000
812.743530	412.000000
812.778931	416.000000
812.814270	410.000000
812.849609	418.000000
812.884949	416.000000
812.920227	404.000000
812.955627	425.000000
812.990967	419.000000
813.026306	404.000000
813.061646	390.000000
813.096985	396.000000
813.132324	386.000000
813.167664	392.000000
813.203003	387.000000
813.238281	379.000000
813.273682	383.000000
813.308960	390.000000
813.344299	384.000000
813.379639	391.000000
813.414978	382.000000
813.450256	377.000000
813.485596	383.000000
813.520874	381.000000
813.556213	376.000000
813.591614	380.000000
813.626831	367.000000
813.662170	373.000000
813.697510	388.000000
813.732788	370.000000
813.768127	376.000000
813.803467	374.000000
813.838745	371.000000
813.874084	377.000000
813.909363	371.000000
813.944641	375.000000
813.979980	363.000000
814.015320	368.000000
814.050598	365.000000
814.085876	367.000000
814.121155	357.000000
814.156494	359.000000
814.191772	365.000000
814.227051	363.000000
814.262390	365.000000
814.297668	357.000000
814.332947	359.000000
814.368225	348.000000
814.403564	357.000000
814.438782	349.000000
814.474121	360.000000
814.509338	352.000000
814.544617	360.000000
814.579956	345.000000
814.615173	359.000000
814.650513	349.000000
814.685791	349.000000
814.721008	354.000000
814.756348	350.000000
814.791626	341.000000
814.826843	349.000000
814.862122	340.000000
814.897400	340.000000
814.932678	339.000000
814.967957	346.000000
815.003235	339.000000
815.038452	336.000000
815.073730	331.000000
815.108948	352.000000
815.144226	337.000000
815.179504	347.000000
815.214722	329.000000
815.250000	333.000000
815.285278	335.000000
815.320496	333.000000
815.355774	329.000000
815.391052	337.000000
815.426270	325.000000
815.461487	329.000000
815.496765	321.000000
815.531982	318.000000
815.567261	321.000000
815.602539	324.000000
815.637695	322.000000
815.672974	328.000000
815.708191	324.000000
815.743408	333.000000
815.778687	320.000000
815.813904	323.000000
815.849121	305.000000
815.884399	310.000000
815.919556	313.000000
815.954834	314.000000
815.990051	321.000000
816.025269	314.000000
816.060486	309.000000
816.095703	311.000000
816.130920	316.000000
816.166199	311.000000
816.201416	311.000000
816.236572	313.000000
816.271851	303.000000
816.307007	312.000000
816.342224	301.000000
816.377441	303.000000
816.412659	300.000000
816.447876	308.000000
816.483093	307.000000
816.518250	301.000000
816.553467	295.000000
816.588745	299.000000
816.623901	291.000000
816.659119	289.000000
816.694275	299.000000
816.729492	288.000000
816.764709	331.000000
816.799927	292.000000
816.835083	294.000000
816.870300	283.000000
816.905457	291.000000
816.940674	289.000000
816.975830	284.000000
817.010986	286.000000
817.046204	289.000000
817.081421	278.000000
817.116577	282.000000
817.151733	283.000000
817.186951	290.000000
817.222107	283.000000
817.257324	292.000000
817.292419	284.000000
817.327637	276.000000
817.362854	280.000000
817.398010	282.000000
817.433167	280.000000
817.468323	282.000000
817.503479	276.000000
817.538635	296.000000
817.573853	286.000000
817.608948	282.000000
817.644165	278.000000
817.679321	280.000000
817.714478	271.000000
817.749634	280.000000
817.784790	293.000000
817.819946	282.000000
817.855103	270.000000
817.890198	274.000000
817.925415	268.000000
817.960571	280.000000
817.995667	277.000000
818.030823	281.000000
818.066040	273.000000
818.101135	277.000000
818.136292	274.000000
818.171448	273.000000
818.206543	276.000000
818.241699	276.000000
818.276855	275.000000
818.311951	265.000000
818.347107	266.000000
818.382263	271.000000
818.417358	280.000000
818.452515	277.000000
818.487610	275.000000
818.522766	271.000000
818.557922	283.000000
818.593018	271.000000
818.628113	274.000000
818.663269	263.000000
818.698364	275.000000
818.733521	262.000000
818.768677	272.000000
818.803711	259.000000
818.838867	258.000000
818.874023	263.000000
818.909058	261.000000
818.944214	261.000000
818.979370	262.000000
819.014404	263.000000
819.049561	259.000000
819.084595	259.000000
819.119751	254.000000
819.154846	264.000000
819.189941	254.000000
819.225037	253.000000
819.260193	252.000000
819.295227	248.000000
819.330322	250.000000
819.365479	247.000000
819.400513	281.000000
819.435608	244.000000
819.470764	243.000000
819.505798	241.000000
819.540894	256.000000
819.575989	250.000000
819.611084	253.000000
819.646179	258.000000
819.681213	252.000000
819.716309	248.000000
819.751404	247.000000
819.786438	262.000000
819.821533	246.000000
819.856628	249.000000
819.891663	247.000000
819.926758	253.000000
819.961853	249.000000
819.996887	243.000000
820.031982	248.000000
820.067017	242.000000
820.102112	269.000000
820.137207	242.000000
820.172302	259.000000
820.207275	241.000000
820.242371	242.000000
820.277405	246.000000
820.312500	241.000000
820.347534	239.000000
820.382568	243.000000
820.417664	241.000000
820.452759	236.000000
820.487732	235.000000
820.522827	236.000000
820.557861	237.000000
820.592896	241.000000
820.627930	238.000000
820.662964	231.000000
820.698059	242.000000
820.733093	233.000000
820.768127	242.000000
820.803162	234.000000
820.838196	238.000000
820.873230	231.000000
820.908264	240.000000
820.943298	236.000000
820.978333	238.000000
821.013367	234.000000
821.048401	245.000000
821.083435	236.000000
821.118469	227.000000
821.153503	236.000000
821.188477	237.000000
821.223511	224.000000
821.258484	238.000000
821.293579	233.000000
821.328613	228.000000
821.363647	232.000000
821.398621	225.000000
821.433655	227.000000
821.468628	249.000000
821.503662	229.000000
821.538696	239.000000
821.573669	225.000000
821.608704	233.000000
821.643677	229.000000
821.678650	236.000000
821.713684	237.000000
821.748718	226.000000
821.783691	233.000000
821.818726	229.000000
821.853638	231.000000
821.888672	228.000000
821.923706	229.000000
821.958618	220.000000
821.993652	226.000000
822.028687	234.000000
822.063599	231.000000
822.098633	222.000000
822.133667	219.000000
822.168579	221.000000
822.203613	227.000000
822.238586	215.000000
822.273560	227.000000
822.308533	217.000000
822.343567	220.000000
822.378479	224.000000
822.413452	218.000000
822.448425	216.000000
822.483398	228.000000
822.518372	223.000000
822.553345	219.000000
822.588318	227.000000
822.623291	222.000000
822.658203	218.000000
822.693237	219.000000
822.728210	214.000000
822.763123	218.000000
822.798096	209.000000
822.833069	216.000000
822.867981	215.000000
822.902954	219.000000
822.937927	216.000000
822.972900	227.000000
823.007874	207.000000
823.042725	222.000000
823.077698	223.000000
823.112671	211.000000
823.147583	217.000000
823.182556	219.000000
823.217529	223.000000
823.252441	215.000000
823.287415	230.000000
823.322388	215.000000
823.357239	214.000000
823.392212	222.000000
823.427185	221.000000
823.462097	209.000000
823.497009	216.000000
823.531982	211.000000
823.566895	212.000000
823.601807	205.000000
823.636719	214.000000
823.671631	214.000000
823.706604	209.000000
823.741455	211.000000
823.776428	205.000000
823.811340	213.000000
823.846252	220.000000
823.881165	217.000000
823.916138	213.000000
823.950989	216.000000
823.985901	206.000000
824.020813	206.000000
824.055725	211.000000
824.090637	202.000000
824.125610	211.000000
824.160461	208.000000
824.195374	209.000000
824.230225	209.000000
824.265198	202.000000
824.300110	206.000000
824.334961	218.000000
824.369873	197.000000
824.404785	213.000000
824.439636	210.000000
824.474548	199.000000
824.509460	197.000000
824.544312	213.000000
824.579224	209.000000
824.614075	211.000000
824.648987	201.000000
824.683899	204.000000
824.718811	205.000000
824.753662	209.000000
824.788574	209.000000
824.823364	206.000000
824.858276	203.000000
824.893188	212.000000
824.928040	210.000000
824.962952	208.000000
824.997803	210.000000
825.032654	205.000000
825.067566	210.000000
825.102417	208.000000
825.137268	203.000000
825.172119	207.000000
825.206970	203.000000
825.241882	200.000000
825.276733	199.000000
825.311646	194.000000
825.346436	202.000000
825.381348	195.000000
825.416138	204.000000
825.450989	198.000000
825.485901	195.000000
825.520691	193.000000
825.555542	198.000000
825.590454	198.000000
825.625244	193.000000
825.660095	205.000000
825.695007	206.000000
825.729797	196.000000
825.764648	197.000000
825.799438	197.000000
825.834290	207.000000
825.869202	195.000000
825.903992	203.000000
825.938843	195.000000
825.973694	197.000000
826.008484	209.000000
826.043335	197.000000
826.078186	191.000000
826.112976	205.000000
826.147827	202.000000
826.182678	214.000000
826.217468	189.000000
826.252319	205.000000
826.287109	189.000000
826.321899	204.000000
826.356750	195.000000
826.391541	195.000000
826.426392	202.000000
826.461182	199.000000
826.495972	192.000000
826.530823	187.000000
826.565613	203.000000
826.600403	197.000000
826.635254	198.000000
826.670044	195.000000
826.704834	191.000000
826.739685	192.000000
826.774475	201.000000
826.809265	197.000000
826.844055	189.000000
826.878906	204.000000
826.913635	196.000000
826.948425	197.000000
826.983215	198.000000
827.018005	203.000000
827.052856	195.000000
827.087585	197.000000
827.122375	189.000000
827.157227	194.000000
827.191956	210.000000
827.226746	191.000000
827.261536	194.000000
827.296265	186.000000
827.331116	194.000000
827.365906	190.000000
827.400635	187.000000
827.435425	182.000000
827.470215	203.000000
827.504944	192.000000
827.539734	200.000000
827.574463	190.000000
827.609253	204.000000
827.644043	192.000000
827.678772	199.000000
827.713562	188.000000
827.748352	187.000000
827.783081	184.000000
827.817871	198.000000
827.852600	185.000000
827.887329	190.000000
827.922119	181.000000
827.956848	196.000000
827.991638	201.000000
828.026367	197.000000
828.061157	193.000000
828.095886	192.000000
828.130615	208.000000
828.165344	183.000000
828.200073	190.000000
828.234863	192.000000
828.269592	190.000000
828.304321	194.000000
828.339111	189.000000
828.373779	186.000000
828.408569	196.000000
828.443298	201.000000
828.477966	192.000000
828.512756	192.000000
828.547424	186.000000
828.582214	187.000000
828.616943	187.000000
828.651672	189.000000
828.686340	197.000000
828.721130	187.000000
828.755798	191.000000
828.790527	187.000000
828.825256	190.000000
828.859924	192.000000
828.894714	195.000000
828.929443	197.000000
828.964111	192.000000
828.998840	194.000000
829.033569	187.000000
829.068237	186.000000
829.102966	189.000000
829.137634	188.000000
829.172363	193.000000
829.207092	185.000000
829.241821	185.000000
829.276489	181.000000
829.311157	190.000000
829.345825	183.000000
829.380554	194.000000
829.415283	183.000000
829.449951	181.000000
829.484619	195.000000
829.519348	198.000000
829.554016	182.000000
829.588745	186.000000
829.623413	177.000000
829.658081	199.000000
829.692749	179.000000
829.727417	196.000000
829.762146	188.000000
829.796814	190.000000
829.831482	183.000000
829.866150	187.000000
829.900879	185.000000
829.935486	197.000000
829.970154	184.000000
830.004883	199.000000
830.039490	187.000000
830.074219	185.000000
830.108887	189.000000
830.143494	191.000000
830.178223	179.000000
830.212891	188.000000
830.247498	190.000000
830.282166	195.000000
830.316772	194.000000
830.351501	179.000000
830.386169	184.000000
830.420776	187.000000
830.455444	190.000000
830.490112	186.000000
830.524719	181.000000
830.559387	190.000000
830.594055	191.000000
830.628662	189.000000
830.663330	187.000000
830.697998	197.000000
830.732605	188.000000
830.767273	187.000000
830.801941	189.000000
830.836487	198.000000
830.871155	192.000000
830.905762	187.000000
830.940430	183.000000
830.975098	182.000000
831.009644	188.000000
831.044312	193.000000
831.078979	192.000000
831.113525	173.000000
831.148193	185.000000
831.182861	187.000000
831.217407	190.000000
831.252075	200.000000
831.286621	185.000000
831.321289	179.000000
831.355896	187.000000
831.390564	193.000000
831.425110	186.000000
831.459778	191.000000
831.494324	197.000000
831.528931	185.000000
831.563599	189.000000
831.598145	182.000000
831.632751	185.000000
831.667419	186.000000
831.701965	193.000000
831.736572	187.000000
831.771179	182.000000
831.805786	186.000000
831.840393	192.000000
831.874939	182.000000
831.909546	196.000000
831.944153	173.000000
831.978760	190.000000
832.013306	178.000000
832.047913	193.000000
832.082458	198.000000
832.117065	184.000000
832.151672	196.000000
832.186218	193.000000
832.220825	189.000000
832.255432	178.000000
832.289978	190.000000
832.324585	191.000000
832.359192	189.000000
832.393677	191.000000
832.428284	188.000000
832.462830	185.000000
832.497437	188.000000
832.531982	192.000000
832.566589	185.000000
832.601135	184.000000
832.635681	178.000000
832.670227	185.000000
832.704773	197.000000
832.739380	190.000000
832.773926	188.000000
832.808472	183.000000
832.843079	191.000000
832.877563	185.000000
832.912170	186.000000
832.946716	181.000000
832.981201	192.000000
833.015808	189.000000
833.050293	189.000000
833.084839	181.000000
833.119446	185.000000
833.153992	190.000000
833.188477	187.000000
833.223022	182.000000
833.257568	189.000000
833.292114	193.000000
833.326660	201.000000
833.361145	180.000000
833.395691	176.000000
833.430237	187.000000
833.464783	192.000000
833.499329	181.000000
833.533875	185.000000
833.568359	191.000000
833.602905	193.000000
833.637390	191.000000
833.671875	187.000000
833.706421	186.000000
833.740906	184.000000
833.775452	179.000000
833.809998	183.000000
833.844482	191.000000
833.879028	190.000000
833.913513	181.000000
833.947998	193.000000
833.982544	186.000000
834.017090	185.000000
834.051514	176.000000
834.086060	191.000000
834.120544	189.000000
834.155029	191.000000
834.189575	187.000000
834.223999	185.000000
834.258545	187.000000
834.293030	186.000000
834.327515	187.000000
834.362000	184.000000
834.396545	192.000000
834.430969	185.000000
834.465454	193.000000
834.500000	180.000000
834.534424	188.000000
834.568970	173.000000
834.603455	179.000000
834.637878	182.000000
834.672363	187.000000
834.706909	184.000000
834.741333	188.000000
834.775818	179.000000
834.810242	179.000000
834.844727	180.000000
834.879211	189.000000
834.913635	185.000000
834.948181	186.000000
834.982666	185.000000
835.017090	182.000000
835.051575	186.000000
835.086060	182.000000
835.120483	189.000000
835.154907	192.000000
835.189331	187.000000
835.223816	189.000000
835.258301	177.000000
835.292786	182.000000
835.327209	193.000000
835.361694	181.000000
835.396057	182.000000
835.430542	189.000000
835.465027	183.000000
835.499390	185.000000
835.533875	207.000000
835.568359	186.000000
835.602722	180.000000
835.637207	190.000000
835.671692	181.000000
835.706055	209.000000
835.740540	189.000000
835.774902	189.000000
835.809387	190.000000
835.843811	179.000000
835.878235	195.000000
835.912659	183.000000
835.947083	183.000000
835.981506	182.000000
836.015930	186.000000
836.050354	191.000000
836.084778	193.000000
836.119202	193.000000
836.153625	204.000000
836.187988	178.000000
836.222473	185.000000
836.256897	188.000000
836.291260	185.000000
836.325684	187.000000
836.360046	185.000000
836.394470	184.000000
836.428894	198.000000
836.463318	179.000000
836.497681	191.000000
836.532104	195.000000
836.566467	188.000000
836.600891	185.000000
836.635315	191.000000
836.669678	189.000000
836.704102	192.000000
836.738525	187.000000
836.772888	182.000000
836.807251	185.000000
836.841675	194.000000
836.876038	181.000000
836.910461	182.000000
836.944763	192.000000
836.979187	184.000000
837.013611	189.000000
837.047974	182.000000
837.082336	196.000000
837.116699	191.000000
837.151062	188.000000
837.185486	183.000000
837.219849	182.000000
837.254211	188.000000
837.288574	187.000000
837.322937	181.000000
837.357300	178.000000
837.391663	202.000000
837.426086	192.000000
837.460388	190.000000
837.494751	192.000000
837.529114	184.000000
837.563477	196.000000
837.597839	190.000000
837.632141	182.000000
837.666565	182.000000
837.700928	196.000000
837.735229	187.000000
837.769592	186.000000
837.803955	191.000000
837.838257	191.000000
837.872620	185.000000
837.906982	197.000000
837.941284	182.000000
837.975647	190.000000
838.010010	189.000000
838.044312	183.000000
838.078674	183.000000
838.112976	187.000000
838.147339	184.000000
838.181702	189.000000
838.216003	195.000000
838.250366	186.000000
838.284668	189.000000
838.318970	182.000000
838.353333	179.000000
838.387634	187.000000
838.421936	185.000000
838.456299	187.000000
838.490601	189.000000
838.524902	189.000000
838.559265	187.000000
838.593567	191.000000
838.627869	182.000000
838.662170	188.000000
838.696472	177.000000
838.730774	185.000000
838.765137	188.000000
838.799377	174.000000
838.833740	191.000000
838.868042	193.000000
838.902283	182.000000
838.936646	193.000000
838.970947	187.000000
839.005188	191.000000
839.039551	179.000000
839.073792	192.000000
839.108093	188.000000
839.142395	199.000000
839.176697	181.000000
839.210937	189.000000
839.245300	199.000000
839.279541	181.000000
839.313843	189.000000
839.348145	192.000000
839.382385	191.000000
839.416687	193.000000
839.450989	191.000000
839.485229	187.000000
839.519531	183.000000
839.553833	192.000000
839.588013	184.000000
839.622314	188.000000
839.656555	189.000000
839.690857	187.000000
839.725159	179.000000
839.759460	184.000000
839.793640	187.000000
839.827942	189.000000
839.862183	183.000000
839.896423	184.000000
839.930725	200.000000
839.964966	195.000000
839.999207	194.000000
840.033508	190.000000
840.067688	186.000000
840.101990	188.000000
840.136230	186.000000
840.170471	192.000000
840.204712	185.000000
840.238953	179.000000
840.273193	191.000000
840.307434	190.000000
840.341736	185.000000
840.375916	178.000000
840.410217	182.000000
840.444397	189.000000
840.478638	190.000000
840.512878	189.000000
840.547119	190.000000
840.581360	190.000000
840.615601	195.000000
840.649780	199.000000
840.684021	190.000000
840.718262	194.000000
840.752441	197.000000
840.786682	194.000000
840.820862	187.000000
840.855103	192.000000
840.889343	188.000000
840.923584	188.000000
840.957764	192.000000
840.992004	190.000000
841.026184	200.000000
841.060425	184.000000
841.094666	183.000000
841.128845	192.000000
841.163025	188.000000
841.197266	192.000000
841.231445	187.000000
841.265686	188.000000
841.299866	182.000000
841.334045	193.000000
841.368286	186.000000
841.402405	193.000000
841.436646	187.000000
841.470825	186.000000
841.505005	183.000000
841.539185	182.000000
841.573425	186.000000
841.607544	191.000000
841.641785	183.000000
841.675964	182.000000
841.710144	188.000000
841.744324	185.000000
841.778503	185.000000
841.812683	184.000000
841.846863	195.000000
841.881042	194.000000
841.915222	182.000000
841.949402	201.000000
841.983521	179.000000
842.017700	185.000000
842.051880	183.000000
842.086060	189.000000
842.120239	184.000000
842.154419	183.000000
842.188538	191.000000
842.222717	189.000000
842.256897	193.000000
842.291016	188.000000
842.325195	191.000000
842.359375	199.000000
842.393494	195.000000
842.427673	193.000000
842.461853	189.000000
842.495911	202.000000
842.530090	192.000000
842.564209	184.000000
842.598389	187.000000
842.632568	190.000000
842.666626	192.000000
842.700806	189.000000
842.734985	181.000000
842.769043	194.000000
842.803223	186.000000
842.837402	189.000000
842.871460	187.000000
842.905640	197.000000
842.939697	186.000000
842.973877	189.000000
843.007996	194.000000
843.042175	196.000000
843.076233	187.000000
843.110413	188.000000
843.144470	200.000000
843.178589	192.000000
843.212769	185.000000
843.246826	190.000000
843.280945	183.000000
843.315125	183.000000
843.349182	187.000000
843.383301	192.000000
843.417419	200.000000
843.451538	186.000000
843.485657	186.000000
843.519714	185.000000
843.553833	193.000000
843.587952	179.000000
843.622070	181.000000
843.656128	190.000000
843.690247	185.000000
843.724304	183.000000
843.758423	189.000000
843.792542	181.000000
843.826599	188.000000
843.860718	185.000000
843.894836	183.000000
843.928894	190.000000
843.963013	190.000000
843.997070	179.000000
844.031128	182.000000
844.065247	194.000000
844.099304	194.000000
844.133362	191.000000
844.167480	193.000000
844.201599	193.000000
844.235596	197.000000
844.269714	192.000000
844.303711	189.000000
844.337830	183.000000
844.371948	197.000000
844.405945	188.000000
844.440063	188.000000
844.474121	204.000000
844.508118	184.000000
844.542236	192.000000
844.576294	190.000000
844.610352	181.000000
844.644409	188.000000
844.678406	181.000000
844.712524	193.000000
844.746582	197.000000
844.780640	187.000000
844.814636	189.000000
844.848755	198.000000
844.882751	190.000000
844.916809	192.000000
844.950867	191.000000
844.984863	197.000000
845.018921	189.000000
845.052979	185.000000
845.086975	191.000000
845.121033	181.000000
845.155090	188.000000
845.189087	195.000000
845.223145	185.000000
845.257141	189.000000
845.291199	193.000000
845.325256	191.000000
845.359253	191.000000
845.393250	196.000000
845.427307	187.000000
845.461304	191.000000
845.495361	191.000000
845.529358	196.000000
845.563354	187.000000
845.597412	178.000000
845.631409	193.000000
845.665405	192.000000
845.699463	195.000000
845.733459	186.000000
845.767456	198.000000
845.801453	188.000000
845.835449	194.000000
845.869446	193.000000
845.903503	195.000000
845.937439	181.000000
845.971497	197.000000
846.005493	183.000000
846.039429	194.000000
846.073486	197.000000
846.107483	190.000000
846.141418	185.000000
846.175476	190.000000
846.209473	196.000000
846.243408	184.000000
846.277405	193.000000
846.311401	184.000000
846.345337	188.000000
846.379395	195.000000
846.413330	189.000000
846.447327	195.000000
846.481323	187.000000
846.515259	191.000000
846.549255	186.000000
846.583252	190.000000
846.617187	183.000000
846.651184	186.000000
846.685120	188.000000
846.719055	194.000000
846.753052	192.000000
846.786987	193.000000
846.820984	181.000000
846.854980	192.000000
846.888916	188.000000
846.922852	189.000000
846.956848	198.000000
846.990723	185.000000
847.024719	191.000000
847.058716	187.000000
847.092590	197.000000
847.126587	193.000000
847.160522	189.000000
847.194458	192.000000
847.228455	188.000000
847.262390	180.000000
847.296265	184.000000
847.330261	191.000000
847.364136	184.000000
847.398132	183.000000
847.432068	187.000000
847.466003	181.000000
847.499939	186.000000
847.533875	191.000000
847.567749	191.000000
847.601746	184.000000
847.635681	194.000000
847.669556	179.000000
847.703491	196.000000
847.737427	206.000000
847.771301	181.000000
847.805237	192.000000
847.839233	190.000000
847.873108	187.000000
847.907043	191.000000
847.940918	200.000000
847.974854	189.000000
848.008789	194.000000
848.042664	192.000000
848.076538	190.000000
848.110474	191.000000
848.144348	191.000000
848.178284	180.000000
848.212219	196.000000
848.246094	187.000000
848.279968	189.000000
848.313904	193.000000
848.347778	192.000000
848.381653	184.000000
848.415588	187.000000
848.449463	188.000000
848.483337	192.000000
848.517212	193.000000
848.551086	190.000000
848.585022	180.000000
848.618835	200.000000
848.652771	185.000000
848.686646	189.000000
848.720520	196.000000
848.754395	189.000000
848.788330	190.000000
848.822144	195.000000
848.856018	184.000000
848.889954	195.000000
848.923767	183.000000
848.957642	188.000000
848.991577	190.000000
849.025391	189.000000
849.059265	183.000000
849.093079	183.000000
849.126953	182.000000
849.160828	193.000000
849.194641	189.000000
849.228577	189.000000
849.262451	185.000000
849.296265	183.000000
849.330139	184.000000
849.364014	191.000000
849.397827	190.000000
849.431702	190.000000
849.465515	189.000000
849.499329	181.000000
849.533203	186.000000
849.567078	180.000000
849.600891	187.000000
849.634766	190.000000
849.668518	194.000000
849.702393	191.000000
849.736267	185.000000
849.770020	199.000000
849.803894	190.000000
849.837769	188.000000
849.871521	191.000000
849.905396	191.000000
849.939270	190.000000
849.973022	185.000000
850.006897	193.000000
850.040710	190.000000
850.074524	189.000000
850.108337	186.000000
850.142151	193.000000
850.175964	194.000000
850.209778	191.000000
850.243530	175.000000
850.277405	193.000000
850.311218	187.000000
850.344971	186.000000
850.378845	195.000000
850.412659	185.000000
850.446411	187.000000
850.480225	186.000000
850.514038	193.000000
850.547791	191.000000
850.581665	188.000000
850.615417	189.000000
850.649231	187.000000
850.683044	189.000000
850.716858	184.000000
850.750610	187.000000
850.784424	190.000000
850.818176	186.000000
850.851929	187.000000
850.885742	185.000000
850.919495	186.000000
850.953308	195.000000
850.987122	193.000000
851.020874	184.000000
851.054626	180.000000
851.088440	193.000000
851.122192	188.000000
851.156006	190.000000
851.189697	189.000000
851.223511	183.000000
851.257263	191.000000
851.291077	195.000000
851.324829	183.000000
851.358582	187.000000
851.392334	187.000000
851.426086	188.000000
851.459900	197.000000
851.493591	191.000000
851.527344	190.000000
851.561157	194.000000
851.594849	191.000000
851.628662	188.000000
851.662415	199.000000
851.696106	192.000000
851.729858	191.000000
851.763611	184.000000
851.797363	194.000000
851.831116	183.000000
851.864868	193.000000
851.898560	193.000000
851.932312	185.000000
851.966064	190.000000
851.999817	189.000000
852.033569	181.000000
852.067261	194.000000
852.101013	180.000000
852.134766	189.000000
852.168457	179.000000
852.202209	195.000000
852.235901	183.000000
852.269592	192.000000
852.303345	196.000000
852.337036	190.000000
852.370789	186.000000
852.404541	193.000000
852.438171	179.000000
852.471924	190.000000
852.505676	182.000000
852.539307	191.000000
852.573059	185.000000
852.606812	188.000000
852.640442	183.000000
852.674194	197.000000
852.707886	205.000000
852.741577	197.000000
852.775269	183.000000
852.809021	191.000000
852.842651	191.000000
852.876404	197.000000
852.910034	189.000000
852.943787	197.000000
852.977478	190.000000
853.011108	187.000000
853.044861	185.000000
853.078552	198.000000
853.112183	195.000000
853.145874	192.000000
853.179626	177.000000
853.213257	194.000000
853.246948	187.000000
853.280640	200.000000
853.314270	188.000000
853.347961	194.000000
853.381653	193.000000
853.415283	197.000000
853.448975	187.000000
853.482605	192.000000
853.516296	194.000000
853.549988	180.000000
853.583618	191.000000
853.617310	187.000000
853.651001	192.000000
853.684631	184.000000
853.718323	192.000000
853.751953	195.000000
853.785583	180.000000
853.819275	194.000000
853.852966	191.000000
853.886536	176.000000
853.920227	185.000000
853.953918	192.000000
853.987488	190.000000
854.021179	192.000000
854.054749	195.000000
854.088440	189.000000
854.122131	186.000000
854.155701	185.000000
854.189331	187.000000
854.223022	193.000000
854.256592	189.000000
854.290283	187.000000
854.323914	194.000000
854.357483	187.000000
854.391174	193.000000
854.424744	200.000000
854.458374	193.000000
854.492065	200.000000
854.525696	191.000000
854.559265	191.000000
854.592896	202.000000
854.626465	192.000000
854.660095	190.000000
854.693787	192.000000
854.727356	190.000000
854.760986	191.000000
854.794617	195.000000
854.828186	193.000000
854.861816	191.000000
854.895447	195.000000
854.929016	190.000000
854.962585	194.000000
854.996155	197.000000
855.029785	197.000000
855.063416	194.000000
855.097046	196.000000
855.130615	181.000000
855.164185	192.000000
855.197754	189.000000
855.231384	197.000000
855.264954	185.000000
855.298523	196.000000
855.332153	186.000000
855.365723	196.000000
855.399292	185.000000
855.432922	191.000000
855.466492	188.000000
855.500061	182.000000
855.533630	185.000000
855.567200	193.000000
855.600769	189.000000
855.634338	191.000000
855.667969	186.000000
855.701477	186.000000
855.735046	183.000000
855.768616	179.000000
855.802185	191.000000
855.835754	203.000000
855.869324	175.000000
855.902893	190.000000
855.936401	196.000000
855.969971	185.000000
856.003540	185.000000
856.037109	198.000000
856.070618	184.000000
856.104187	184.000000
856.137695	186.000000
856.171265	174.000000
856.204834	190.000000
856.238403	197.000000
856.271912	182.000000
856.305481	195.000000
856.338989	184.000000
856.372559	194.000000
856.406128	191.000000
856.439636	197.000000
856.473145	185.000000
856.506653	197.000000
856.540222	192.000000
856.573792	198.000000
856.607300	193.000000
856.640808	185.000000
856.674377	187.000000
856.707825	222.000000
856.741394	196.000000
856.774902	183.000000
856.808472	185.000000
856.841980	192.000000
856.875488	196.000000
856.908936	181.000000
856.942505	190.000000
856.976013	187.000000
857.009521	188.000000
857.043030	185.000000
857.076477	188.000000
857.110046	192.000000
857.143555	190.000000
857.177063	191.000000
857.210571	189.000000
857.244080	182.000000
857.277527	192.000000
857.311035	185.000000
857.344543	192.000000
857.378052	184.000000
857.411499	197.000000
857.445068	200.000000
857.478516	186.000000
857.512024	182.000000
857.545532	188.000000
857.578979	190.000000
857.612427	191.000000
857.645874	186.000000
857.679382	190.000000
857.712891	191.000000
857.746399	189.000000
857.779846	189.000000
857.813354	193.000000
857.846741	189.000000
857.880249	183.000000
857.913757	186.000000
857.947266	193.000000
857.980652	189.000000
858.014160	191.000000
858.047546	189.000000
858.081055	188.000000
858.114563	199.000000
858.147949	184.000000
858.181458	194.000000
858.214844	192.000000
858.248352	184.000000
858.281799	197.000000
858.315308	207.000000
858.348694	195.000000
858.382141	195.000000
858.415588	195.000000
858.449036	199.000000
858.482483	197.000000
858.515930	190.000000
858.549377	188.000000
858.582825	196.000000
858.616211	192.000000
858.649658	194.000000
858.683105	183.000000
858.716553	191.000000
858.750000	185.000000
858.783386	188.000000
858.816833	179.000000
858.850281	191.000000
858.883728	192.000000
858.917114	189.000000
858.950562	193.000000
858.983948	201.000000
859.017395	195.000000
859.050781	191.000000
859.084167	180.000000
859.117615	187.000000
859.151062	196.000000
859.184448	191.000000
859.217834	187.000000
859.251282	189.000000
859.284668	178.000000
859.318054	178.000000
859.351440	187.000000
859.384888	195.000000
859.418274	178.000000
859.451721	184.000000
859.485046	191.000000
859.518494	192.000000
859.551819	185.000000
859.585266	192.000000
859.618652	193.000000
859.652039	184.000000
859.685425	183.000000
859.718811	188.000000
859.752197	182.000000
859.785583	193.000000
859.819031	197.000000
859.852356	194.000000
859.885742	185.000000
859.919067	191.000000
859.952454	190.000000
859.985901	197.000000
860.019287	191.000000
860.052612	0.000000
860.085999	0.000000
860.119324	0.000000
860.152710	0.000000
860.186096	0.000000
860.219421	0.000000
860.252808	0.000000
860.286133	0.000000
860.319519	0.000000
860.352905	0.000000
860.386292	0.000000
860.419617	0.000000
860.452942	0.000000
860.486267	0.000000
860.519653	0.000000
860.553040	0.000000
860.586365	0.000000
860.619690	0.000000
860.653076	0.000000
860.686340	0.000000
860.719727	0.000000
860.753113	0.000000
860.786377	0.000000
860.819763	0.000000
860.853027	0.000000
860.886414	0.000000
860.919739	0.000000
860.953125	0.000000
860.986389	0.000000
861.019714	0.000000
861.053040	0.000000
861.086365	0.000000
861.119690	0.000000
861.153076	0.000000
861.186340	0.000000
861.219666	0.000000
861.252930	0.000000
861.286316	0.000000
861.319641	0.000000
861.352905	0.000000
861.386230	0.000000
861.419495	0.000000
861.452820	0.000000
861.486145	0.000000
861.519470	0.000000
861.552734	0.000000
861.586060	0.000000
861.619324	0.000000
861.652649	0.000000
861.685974	0.000000
861.719238	0.000000
861.752563	0.000000
861.785828	0.000000
861.819092	0.000000
861.852417	0.000000
861.885742	0.000000
861.918945	0.000000
861.952271	0.000000
861.985535	0.000000
862.018799	0.000000
862.052124	0.000000
862.085449	0.000000
862.118652	0.000000
862.151978	0.000000
862.185181	0.000000
862.218506	0.000000
862.251770	0.000000
862.285034	0.000000
862.318298	0.000000
862.351562	0.000000
862.384827	0.000000
862.418091	0.000000
862.451355	0.000000
862.484619	0.000000
862.517883	0.000000
862.551086	0.000000
862.584351	0.000000
862.617676	0.000000
862.650940	0.000000
862.684143	0.000000
862.717407	0.000000
862.750610	0.000000
862.783875	0.000000
862.817139	0.000000
862.850342	0.000000
862.883606	0.000000
862.916870	0.000000
862.950073	0.000000
862.983337	0.000000
863.016602	0.000000
863.049805	0.000000
863.083069	0.000000
863.116211	0.000000
863.149475	0.000000
863.182739	0.000000
863.216003	0.000000
863.249146	0.000000
863.282410	0.000000
863.315613	0.000000
863.348816	0.000000
863.382080	0.000000
863.415222	0.000000
863.448486	0.000000
863.481689	0.000000
863.514893	0.000000
863.548157	0.000000
863.581360	0.000000
863.614502	0.000000
863.647766	0.000000
863.680908	0.000000
863.714172	0.000000
863.747375	0.000000
863.780579	0.000000
863.813721	0.000000
863.846985	0.000000
863.880127	0.000000
863.913330	0.000000
863.946533	0.000000
863.979675	0.000000
864.012939	0.000000
