Model Number: SPM-001-M   
Serial Number: 10090201
Firmware Version: 004.17.6
Exposure Time: 500000.000000us
Data Taken on: 17-08-2020 10:58:47.703
Wavelength	Amplitude
733.770752	0.000000
733.808716	0.000000
733.846619	0.000000
733.884583	0.000000
733.922546	0.000000
733.960449	0.000000
733.998413	0.000000
734.036377	0.000000
734.074219	0.000000
734.112183	0.000000
734.150085	0.000000
734.188049	0.000000
734.226013	0.000000
734.263916	0.000000
734.301819	0.000000
734.339783	0.000000
734.377686	0.000000
734.415588	0.000000
734.453552	0.000000
734.491455	0.000000
734.529419	0.000000
734.567322	0.000000
734.605225	0.000000
734.643127	0.000000
734.681091	0.000000
734.718994	0.000000
734.756897	0.000000
734.794800	0.000000
734.832703	0.000000
734.870667	0.000000
734.908508	0.000000
734.946472	0.000000
734.984375	0.000000
735.022278	0.000000
735.060181	0.000000
735.098083	0.000000
735.135986	0.000000
735.173889	0.000000
735.211792	0.000000
735.249695	0.000000
735.287598	0.000000
735.325439	0.000000
735.363403	0.000000
735.401306	0.000000
735.439148	0.000000
735.477051	0.000000
735.515015	0.000000
735.552856	0.000000
735.590759	0.000000
735.628662	0.000000
735.666504	0.000000
735.704407	0.000000
735.742310	0.000000
735.780212	0.000000
735.818115	0.000000
735.856018	0.000000
735.893860	0.000000
735.931763	0.000000
735.969604	0.000000
736.007507	0.000000
736.045410	0.000000
736.083252	0.000000
736.121094	0.000000
736.158997	0.000000
736.196838	0.000000
736.234741	0.000000
736.272644	0.000000
736.310486	0.000000
736.348389	0.000000
736.386230	0.000000
736.424072	0.000000
736.461975	0.000000
736.499878	0.000000
736.537720	0.000000
736.575562	0.000000
736.613403	0.000000
736.651306	0.000000
736.689148	0.000000
736.726990	0.000000
736.764893	0.000000
736.802734	0.000000
736.840576	0.000000
736.878418	0.000000
736.916321	0.000000
736.954102	0.000000
736.992004	0.000000
737.029846	0.000000
737.067688	0.000000
737.105530	0.000000
737.143372	0.000000
737.181213	0.000000
737.219116	0.000000
737.256897	0.000000
737.294739	0.000000
737.332642	0.000000
737.370422	0.000000
737.408325	0.000000
737.446167	0.000000
737.483948	0.000000
737.521790	0.000000
737.559692	0.000000
737.597473	0.000000
737.635315	0.000000
737.673157	0.000000
737.710999	0.000000
737.748840	0.000000
737.786621	0.000000
737.824463	0.000000
737.862305	0.000000
737.900085	0.000000
737.937927	0.000000
737.975769	0.000000
738.013550	0.000000
738.051392	0.000000
738.089233	0.000000
738.127014	0.000000
738.164856	0.000000
738.202698	0.000000
738.240479	0.000000
738.278320	0.000000
738.316162	0.000000
738.353943	0.000000
738.391785	0.000000
738.429565	0.000000
738.467407	0.000000
738.505188	0.000000
738.542969	0.000000
738.580811	0.000000
738.618652	0.000000
738.656372	0.000000
738.694214	0.000000
738.732056	0.000000
738.769836	0.000000
738.807617	0.000000
738.845459	0.000000
738.883240	0.000000
738.921021	0.000000
738.958862	0.000000
738.996582	0.000000
739.034424	0.000000
739.072205	0.000000
739.109985	0.000000
739.147827	0.000000
739.185547	0.000000
739.223389	0.000000
739.261169	0.000000
739.298889	0.000000
739.336731	0.000000
739.374512	0.000000
739.412292	0.000000
739.450073	0.000000
739.487854	0.000000
739.525635	0.000000
739.563416	0.000000
739.601135	0.000000
739.638977	0.000000
739.676758	0.000000
739.714478	0.000000
739.752258	0.000000
739.790100	0.000000
739.827820	0.000000
739.865601	0.000000
739.903381	0.000000
739.941101	0.000000
739.978882	205.000000
740.016724	203.000000
740.054443	208.000000
740.092224	195.000000
740.130005	194.000000
740.167725	200.000000
740.205505	194.000000
740.243225	210.000000
740.281006	203.000000
740.318787	194.000000
740.356506	211.000000
740.394287	204.000000
740.432068	195.000000
740.469727	190.000000
740.507507	204.000000
740.545288	197.000000
740.583008	205.000000
740.620789	197.000000
740.658569	187.000000
740.696228	198.000000
740.734009	205.000000
740.771790	186.000000
740.809509	212.000000
740.847229	195.000000
740.884949	200.000000
740.922729	189.000000
740.960449	199.000000
740.998169	195.000000
741.035950	196.000000
741.073669	199.000000
741.111389	203.000000
741.149170	210.000000
741.186890	210.000000
741.224609	201.000000
741.262329	202.000000
741.300110	209.000000
741.337769	197.000000
741.375549	188.000000
741.413208	197.000000
741.450989	196.000000
741.488708	200.000000
741.526367	195.000000
741.564148	207.000000
741.601868	204.000000
741.639526	199.000000
741.677307	198.000000
741.715027	198.000000
741.752686	198.000000
741.790466	209.000000
741.828186	205.000000
741.865845	192.000000
741.903564	193.000000
741.941345	200.000000
741.979004	196.000000
742.016724	207.000000
742.054382	203.000000
742.092102	204.000000
742.129822	195.000000
742.167480	199.000000
742.205200	199.000000
742.242920	199.000000
742.280640	206.000000
742.318359	193.000000
742.356079	199.000000
742.393738	203.000000
742.431396	196.000000
742.469116	202.000000
742.506775	190.000000
742.544495	201.000000
742.582214	208.000000
742.619873	196.000000
742.657593	208.000000
742.695251	202.000000
742.732971	203.000000
742.770630	196.000000
742.808289	203.000000
742.846008	204.000000
742.883728	205.000000
742.921326	199.000000
742.959045	198.000000
742.996765	198.000000
743.034424	202.000000
743.072083	197.000000
743.109802	201.000000
743.147400	192.000000
743.185120	204.000000
743.222839	199.000000
743.260437	207.000000
743.298157	201.000000
743.335754	188.000000
743.373474	202.000000
743.411133	186.000000
743.448792	201.000000
743.486450	200.000000
743.524170	192.000000
743.561768	197.000000
743.599487	211.000000
743.637146	212.000000
743.674744	202.000000
743.712463	196.000000
743.750122	204.000000
743.787720	202.000000
743.825439	203.000000
743.863037	196.000000
743.900696	199.000000
743.938416	224.000000
743.976013	195.000000
744.013672	205.000000
744.051331	213.000000
744.088928	211.000000
744.126587	209.000000
744.164307	199.000000
744.201904	201.000000
744.239563	200.000000
744.277222	202.000000
744.314819	197.000000
744.352478	206.000000
744.390137	202.000000
744.427734	202.000000
744.465393	193.000000
744.502991	197.000000
744.540649	204.000000
744.578308	200.000000
744.615906	199.000000
744.653564	193.000000
744.691223	202.000000
744.728821	192.000000
744.766418	204.000000
744.804077	200.000000
744.841675	199.000000
744.879333	193.000000
744.916992	197.000000
744.954529	198.000000
744.992187	209.000000
745.029785	198.000000
745.067444	198.000000
745.105042	199.000000
745.142639	203.000000
745.180298	213.000000
745.217896	197.000000
745.255493	195.000000
745.293152	208.000000
745.330750	202.000000
745.368347	207.000000
745.405945	206.000000
745.443604	203.000000
745.481140	201.000000
745.518799	203.000000
745.556396	202.000000
745.593994	203.000000
745.631592	199.000000
745.669189	196.000000
745.706787	200.000000
745.744385	198.000000
745.781982	202.000000
745.819580	198.000000
745.857178	202.000000
745.894775	202.000000
745.932373	199.000000
745.969971	206.000000
746.007568	189.000000
746.045166	209.000000
746.082764	206.000000
746.120300	205.000000
746.157898	201.000000
746.195557	203.000000
746.233093	190.000000
746.270691	202.000000
746.308228	204.000000
746.345825	204.000000
746.383423	207.000000
746.420959	199.000000
746.458557	201.000000
746.496155	199.000000
746.533691	203.000000
746.571289	199.000000
746.608887	203.000000
746.646423	201.000000
746.684021	200.000000
746.721619	195.000000
746.759155	204.000000
746.796753	191.000000
746.834351	194.000000
746.871826	197.000000
746.909424	205.000000
746.946960	200.000000
746.984558	203.000000
747.022156	196.000000
747.059631	204.000000
747.097229	200.000000
747.134827	196.000000
747.172363	206.000000
747.209900	204.000000
747.247498	190.000000
747.285034	206.000000
747.322571	209.000000
747.360168	196.000000
747.397644	187.000000
747.435242	206.000000
747.472778	206.000000
747.510315	195.000000
747.547913	198.000000
747.585388	206.000000
747.622925	195.000000
747.660522	195.000000
747.697998	198.000000
747.735596	196.000000
747.773132	198.000000
747.810669	199.000000
747.848206	203.000000
747.885742	198.000000
747.923279	193.000000
747.960815	203.000000
747.998352	204.000000
748.035889	210.000000
748.073425	205.000000
748.110901	200.000000
748.148437	198.000000
748.185974	200.000000
748.223511	215.000000
748.261047	200.000000
748.298584	199.000000
748.336060	203.000000
748.373596	207.000000
748.411133	212.000000
748.448608	193.000000
748.486145	206.000000
748.523682	207.000000
748.561218	207.000000
748.598755	202.000000
748.636292	203.000000
748.673706	202.000000
748.711243	207.000000
748.748718	201.000000
748.786255	202.000000
748.823792	201.000000
748.861267	193.000000
748.898804	203.000000
748.936340	205.000000
748.973816	195.000000
749.011292	206.000000
749.048828	202.000000
749.086304	204.000000
749.123840	214.000000
749.161316	196.000000
749.198792	209.000000
749.236328	206.000000
749.273743	205.000000
749.311279	193.000000
749.348816	205.000000
749.386230	200.000000
749.423767	189.000000
749.461304	206.000000
749.498718	203.000000
749.536255	208.000000
749.573730	216.000000
749.611206	206.000000
749.648682	198.000000
749.686218	199.000000
749.723633	205.000000
749.761169	198.000000
749.798645	197.000000
749.836060	203.000000
749.873596	198.000000
749.911011	204.000000
749.948547	204.000000
749.986023	201.000000
750.023437	197.000000
750.060913	193.000000
750.098450	191.000000
750.135864	202.000000
750.173340	203.000000
750.210815	202.000000
750.248291	197.000000
750.285767	202.000000
750.323242	202.000000
750.360657	201.000000
750.398132	194.000000
750.435608	202.000000
750.473022	191.000000
750.510498	199.000000
750.547974	191.000000
750.585449	197.000000
750.622925	187.000000
750.660339	205.000000
750.697815	203.000000
750.735291	201.000000
750.772644	202.000000
750.810120	204.000000
750.847595	204.000000
750.885010	193.000000
750.922485	208.000000
750.959961	198.000000
750.997375	206.000000
751.034851	202.000000
751.072266	207.000000
751.109680	191.000000
751.147156	204.000000
751.184570	207.000000
751.221985	203.000000
751.259460	190.000000
751.296875	202.000000
751.334290	196.000000
751.371765	205.000000
751.409180	205.000000
751.446594	213.000000
751.484070	203.000000
751.521423	207.000000
751.558899	199.000000
751.596375	209.000000
751.633728	205.000000
751.671204	218.000000
751.708618	193.000000
751.746033	210.000000
751.783447	191.000000
751.820801	198.000000
751.858276	205.000000
751.895691	198.000000
751.933105	198.000000
751.970520	198.000000
752.007935	195.000000
752.045349	206.000000
752.082764	200.000000
752.120178	199.000000
752.157532	197.000000
752.195007	199.000000
752.232422	197.000000
752.269775	204.000000
752.307190	202.000000
752.344543	193.000000
752.382019	198.000000
752.419434	201.000000
752.456787	199.000000
752.494202	204.000000
752.531616	203.000000
752.568970	204.000000
752.606384	200.000000
752.643799	207.000000
752.681152	208.000000
752.718567	207.000000
752.755981	193.000000
752.793335	202.000000
752.830750	191.000000
752.868164	207.000000
752.905518	197.000000
752.942932	207.000000
752.980225	194.000000
753.017639	205.000000
753.055054	206.000000
753.092407	199.000000
753.129822	206.000000
753.167175	210.000000
753.204529	199.000000
753.241943	196.000000
753.279358	191.000000
753.316650	200.000000
753.354065	199.000000
753.391479	204.000000
753.428772	206.000000
753.466187	198.000000
753.503479	197.000000
753.540894	198.000000
753.578308	193.000000
753.615601	195.000000
753.653015	200.000000
753.690369	193.000000
753.727722	199.000000
753.765076	193.000000
753.802490	193.000000
753.839783	187.000000
753.877136	201.000000
753.914551	215.000000
753.951843	194.000000
753.989258	203.000000
754.026611	201.000000
754.063904	202.000000
754.101257	195.000000
754.138611	191.000000
754.175964	201.000000
754.213318	216.000000
754.250610	189.000000
754.288025	199.000000
754.325378	199.000000
754.362671	203.000000
754.400024	198.000000
754.437378	211.000000
754.474670	211.000000
754.512085	198.000000
754.549438	197.000000
754.586731	196.000000
754.624084	197.000000
754.661438	196.000000
754.698730	204.000000
754.736084	199.000000
754.773376	198.000000
754.810730	204.000000
754.848083	196.000000
754.885315	205.000000
754.922668	191.000000
754.960022	197.000000
754.997314	205.000000
755.034668	201.000000
755.072021	201.000000
755.109253	200.000000
755.146606	203.000000
755.183960	197.000000
755.221252	207.000000
755.258545	209.000000
755.295898	205.000000
755.333191	210.000000
755.370544	203.000000
755.407776	201.000000
755.445129	199.000000
755.482422	207.000000
755.519714	200.000000
755.557068	193.000000
755.594360	191.000000
755.631653	209.000000
755.668945	211.000000
755.706299	208.000000
755.743530	220.000000
755.780884	213.000000
755.818176	208.000000
755.855408	211.000000
755.892761	212.000000
755.930054	205.000000
755.967346	209.000000
756.004639	211.000000
756.041870	204.000000
756.079224	208.000000
756.116516	202.000000
756.153748	208.000000
756.191040	218.000000
756.228394	207.000000
756.265625	203.000000
756.302917	206.000000
756.340210	201.000000
756.377441	208.000000
756.414795	217.000000
756.452087	206.000000
756.489319	199.000000
756.526611	206.000000
756.563843	208.000000
756.601135	213.000000
756.638428	215.000000
756.675659	203.000000
756.712952	215.000000
756.750244	209.000000
756.787476	209.000000
756.824768	211.000000
756.862061	205.000000
756.899292	253.000000
756.936584	212.000000
756.973816	218.000000
757.011047	225.000000
757.048340	207.000000
757.085632	210.000000
757.122864	223.000000
757.160156	206.000000
757.197327	212.000000
757.234619	214.000000
757.271912	204.000000
757.309082	214.000000
757.346375	209.000000
757.383667	217.000000
757.420837	209.000000
757.458130	216.000000
757.495422	211.000000
757.532593	212.000000
757.569885	207.000000
757.607117	208.000000
757.644348	216.000000
757.681580	225.000000
757.718811	199.000000
757.756042	210.000000
757.793335	209.000000
757.830505	220.000000
757.867798	209.000000
757.905029	204.000000
757.942200	214.000000
757.979492	207.000000
758.016724	212.000000
758.053894	208.000000
758.091187	235.000000
758.128418	210.000000
758.165588	211.000000
758.202820	228.000000
758.240112	210.000000
758.277283	222.000000
758.314514	218.000000
758.351685	209.000000
758.388916	229.000000
758.426147	223.000000
758.463379	233.000000
758.500610	219.000000
758.537842	218.000000
758.575012	223.000000
758.612244	212.000000
758.649475	233.000000
758.686646	210.000000
758.723877	220.000000
758.761108	228.000000
758.798279	218.000000
758.835510	222.000000
758.872742	226.000000
758.909851	228.000000
758.947083	223.000000
758.984253	226.000000
759.021484	229.000000
759.058716	221.000000
759.095886	230.000000
759.133057	222.000000
759.170288	224.000000
759.207458	220.000000
759.244690	232.000000
759.281860	226.000000
759.319031	225.000000
759.356262	222.000000
759.393433	222.000000
759.430603	219.000000
759.467773	225.000000
759.505005	231.000000
759.542175	233.000000
759.579346	225.000000
759.616516	223.000000
759.653687	223.000000
759.690918	222.000000
759.728027	222.000000
759.765259	229.000000
759.802429	225.000000
759.839539	225.000000
759.876770	233.000000
759.913940	236.000000
759.951111	225.000000
759.988281	223.000000
760.025452	223.000000
760.062561	225.000000
760.099792	236.000000
760.136963	231.000000
760.174072	225.000000
760.211243	222.000000
760.248413	224.000000
760.285583	224.000000
760.322754	238.000000
760.359863	236.000000
760.397034	234.000000
760.434204	230.000000
760.471375	230.000000
760.508545	227.000000
760.545715	231.000000
760.582825	225.000000
760.619995	233.000000
760.657166	227.000000
760.694275	237.000000
760.731445	233.000000
760.768555	238.000000
760.805664	234.000000
760.842834	232.000000
760.879944	237.000000
760.917114	240.000000
760.954285	228.000000
760.991394	231.000000
761.028564	241.000000
761.065674	239.000000
761.102783	230.000000
761.139954	241.000000
761.177124	238.000000
761.214172	250.000000
761.251343	232.000000
761.288452	239.000000
761.325562	240.000000
761.362732	235.000000
761.399841	236.000000
761.436951	240.000000
761.474121	233.000000
761.511169	243.000000
761.548340	246.000000
761.585449	245.000000
761.622559	246.000000
761.659668	243.000000
761.696838	250.000000
761.733887	246.000000
761.771057	241.000000
761.808167	248.000000
761.845276	248.000000
761.882385	262.000000
761.919434	251.000000
761.956604	269.000000
761.993713	245.000000
762.030762	259.000000
762.067871	251.000000
762.105042	254.000000
762.142090	262.000000
762.179199	254.000000
762.216309	259.000000
762.253418	274.000000
762.290527	266.000000
762.327637	262.000000
762.364685	249.000000
762.401794	267.000000
762.438904	264.000000
762.475952	256.000000
762.513062	255.000000
762.550110	249.000000
762.587219	269.000000
762.624329	262.000000
762.661377	265.000000
762.698486	260.000000
762.735596	263.000000
762.772644	257.000000
762.809753	257.000000
762.846863	260.000000
762.883911	262.000000
762.921021	263.000000
762.958069	261.000000
762.995117	270.000000
763.032227	267.000000
763.069336	260.000000
763.106323	261.000000
763.143433	263.000000
763.180481	271.000000
763.217590	271.000000
763.254639	263.000000
763.291687	258.000000
763.328735	271.000000
763.365845	263.000000
763.402893	264.000000
763.439941	265.000000
763.477051	273.000000
763.514038	271.000000
763.551147	269.000000
763.588196	277.000000
763.625244	272.000000
763.662292	275.000000
763.699402	278.000000
763.736389	271.000000
763.773499	286.000000
763.810486	282.000000
763.847534	279.000000
763.884644	282.000000
763.921631	279.000000
763.958679	289.000000
763.995728	281.000000
764.032776	292.000000
764.069824	277.000000
764.106873	282.000000
764.143860	287.000000
764.180969	282.000000
764.218018	285.000000
764.255005	280.000000
764.292053	283.000000
764.329102	296.000000
764.366089	296.000000
764.403137	298.000000
764.440125	282.000000
764.477173	292.000000
764.514221	294.000000
764.551208	298.000000
764.588257	279.000000
764.625305	291.000000
764.662292	297.000000
764.699341	303.000000
764.736389	289.000000
764.773376	313.000000
764.810425	300.000000
764.847473	308.000000
764.884399	306.000000
764.921448	315.000000
764.958435	311.000000
764.995483	299.000000
765.032532	324.000000
765.069458	305.000000
765.106506	300.000000
765.143555	296.000000
765.180481	300.000000
765.217529	310.000000
765.254578	293.000000
765.291504	310.000000
765.328552	302.000000
765.365540	305.000000
765.402527	328.000000
765.439575	309.000000
765.476501	306.000000
765.513550	303.000000
765.550537	309.000000
765.587463	317.000000
765.624512	309.000000
765.661499	297.000000
765.698486	321.000000
765.735474	304.000000
765.772461	311.000000
765.809448	320.000000
765.846436	327.000000
765.883423	319.000000
765.920410	321.000000
765.957397	310.000000
765.994385	319.000000
766.031311	331.000000
766.068359	320.000000
766.105286	312.000000
766.142273	328.000000
766.179260	314.000000
766.216187	312.000000
766.253174	309.000000
766.290161	323.000000
766.327148	330.000000
766.364136	335.000000
766.401123	348.000000
766.438049	324.000000
766.475037	342.000000
766.512024	337.000000
766.548950	346.000000
766.585937	343.000000
766.622864	344.000000
766.659790	349.000000
766.696777	331.000000
766.733704	355.000000
766.770691	341.000000
766.807678	357.000000
766.844604	350.000000
766.881531	353.000000
766.918518	357.000000
766.955444	362.000000
766.992432	358.000000
767.029358	357.000000
767.066284	367.000000
767.103271	357.000000
767.140198	387.000000
767.177124	377.000000
767.214050	371.000000
767.251038	366.000000
767.287964	365.000000
767.324890	366.000000
767.361816	373.000000
767.398743	372.000000
767.435730	367.000000
767.472595	371.000000
767.509583	381.000000
767.546509	370.000000
767.583374	378.000000
767.620361	363.000000
767.657288	377.000000
767.694214	373.000000
767.731140	387.000000
767.768066	379.000000
767.804993	389.000000
767.841919	374.000000
767.878845	383.000000
767.915710	386.000000
767.952698	389.000000
767.989563	396.000000
768.026489	395.000000
768.063416	378.000000
768.100281	385.000000
768.137207	397.000000
768.174133	395.000000
768.211060	397.000000
768.247986	392.000000
768.284912	390.000000
768.321777	397.000000
768.358704	390.000000
768.395630	397.000000
768.432495	389.000000
768.469421	405.000000
768.506348	410.000000
768.543152	411.000000
768.580078	401.000000
768.616943	413.000000
768.653870	421.000000
768.690796	411.000000
768.727661	408.000000
768.764587	409.000000
768.801453	414.000000
768.838318	417.000000
768.875244	413.000000
768.912109	431.000000
768.948975	423.000000
768.985901	425.000000
769.022766	419.000000
769.059631	427.000000
769.096558	425.000000
769.133362	426.000000
769.170288	430.000000
769.207214	425.000000
769.244019	433.000000
769.280945	425.000000
769.317810	448.000000
769.354675	438.000000
769.391541	445.000000
769.428406	449.000000
769.465271	451.000000
769.502136	447.000000
769.539062	455.000000
769.575867	452.000000
769.612732	453.000000
769.649597	452.000000
769.686462	463.000000
769.723328	454.000000
769.760193	454.000000
769.797058	460.000000
769.833923	460.000000
769.870728	463.000000
769.907593	463.000000
769.944519	464.000000
769.981323	473.000000
770.018188	473.000000
770.055054	462.000000
770.091858	472.000000
770.128723	472.000000
770.165588	478.000000
770.202393	472.000000
770.239258	487.000000
770.276062	477.000000
770.312927	469.000000
770.349792	485.000000
770.386597	478.000000
770.423462	496.000000
770.460327	507.000000
770.497131	482.000000
770.533997	481.000000
770.570862	493.000000
770.607605	489.000000
770.644470	489.000000
770.681335	504.000000
770.718140	485.000000
770.754944	484.000000
770.791809	485.000000
770.828613	484.000000
770.865479	490.000000
770.902222	508.000000
770.939087	491.000000
770.975952	492.000000
771.012695	498.000000
771.049561	507.000000
771.086365	493.000000
771.123169	503.000000
771.159973	497.000000
771.196838	503.000000
771.233582	507.000000
771.270447	515.000000
771.307251	504.000000
771.344055	506.000000
771.380859	517.000000
771.417664	509.000000
771.454468	524.000000
771.491272	519.000000
771.528076	514.000000
771.564880	514.000000
771.601685	523.000000
771.638428	512.000000
771.675293	525.000000
771.712097	515.000000
771.748840	532.000000
771.785645	531.000000
771.822449	538.000000
771.859253	537.000000
771.896057	537.000000
771.932861	548.000000
771.969604	545.000000
772.006409	533.000000
772.043213	551.000000
772.079956	551.000000
772.116760	551.000000
772.153503	551.000000
772.190308	570.000000
772.227112	561.000000
772.263855	556.000000
772.300659	548.000000
772.337463	562.000000
772.374207	555.000000
772.411011	554.000000
772.447754	556.000000
772.484497	579.000000
772.521301	565.000000
772.558105	566.000000
772.594849	568.000000
772.631592	579.000000
772.668396	587.000000
772.705139	581.000000
772.741882	575.000000
772.778625	590.000000
772.815430	604.000000
772.852173	601.000000
772.888916	612.000000
772.925720	616.000000
772.962463	617.000000
772.999207	602.000000
773.035950	622.000000
773.072754	631.000000
773.109436	618.000000
773.146240	620.000000
773.182922	609.000000
773.219727	620.000000
773.256470	633.000000
773.293152	623.000000
773.329956	630.000000
773.366699	633.000000
773.403381	614.000000
773.440186	627.000000
773.476929	637.000000
773.513611	642.000000
773.550354	650.000000
773.587158	629.000000
773.623840	634.000000
773.660583	645.000000
773.697327	662.000000
773.734009	658.000000
773.770813	658.000000
773.807495	651.000000
773.844238	645.000000
773.880981	659.000000
773.917664	658.000000
773.954407	677.000000
773.991150	672.000000
774.027832	678.000000
774.064575	660.000000
774.101318	676.000000
774.138000	674.000000
774.174744	674.000000
774.211487	707.000000
774.248108	684.000000
774.284851	672.000000
774.321594	681.000000
774.358276	678.000000
774.395020	719.000000
774.431702	722.000000
774.468384	691.000000
774.505127	700.000000
774.541809	711.000000
774.578491	707.000000
774.615234	714.000000
774.651917	713.000000
774.688599	719.000000
774.725342	735.000000
774.762024	715.000000
774.798706	708.000000
774.835449	715.000000
774.872070	730.000000
774.908813	737.000000
774.945496	735.000000
774.982178	740.000000
775.018860	711.000000
775.055542	730.000000
775.092224	740.000000
775.128967	757.000000
775.165588	763.000000
775.202271	753.000000
775.239014	746.000000
775.275635	741.000000
775.312317	745.000000
775.349060	759.000000
775.385681	780.000000
775.422363	760.000000
775.459045	759.000000
775.495667	764.000000
775.532410	758.000000
775.569092	776.000000
775.605713	785.000000
775.642395	775.000000
775.679016	783.000000
775.715698	763.000000
775.752380	762.000000
775.789001	768.000000
775.825684	774.000000
775.862366	793.000000
775.898987	798.000000
775.935669	777.000000
775.972351	789.000000
776.008972	788.000000
776.045654	798.000000
776.082336	795.000000
776.118958	789.000000
776.155640	797.000000
776.192322	792.000000
776.228882	802.000000
776.265564	807.000000
776.302185	806.000000
776.338867	816.000000
776.375488	795.000000
776.412109	798.000000
776.448792	804.000000
776.485413	817.000000
776.522034	814.000000
776.558716	817.000000
776.595337	809.000000
776.631958	807.000000
776.668579	795.000000
776.705261	813.000000
776.741882	823.000000
776.778503	819.000000
776.815186	807.000000
776.851746	811.000000
776.888367	806.000000
776.924988	815.000000
776.961609	817.000000
776.998291	811.000000
777.034851	808.000000
777.071472	817.000000
777.108154	802.000000
777.144714	831.000000
777.181335	829.000000
777.218018	813.000000
777.254578	841.000000
777.291199	840.000000
777.327759	837.000000
777.364380	852.000000
777.401062	874.000000
777.437622	886.000000
777.474243	882.000000
777.510864	890.000000
777.547424	886.000000
777.584045	875.000000
777.620667	892.000000
777.657227	896.000000
777.693848	893.000000
777.730469	898.000000
777.767029	889.000000
777.803650	902.000000
777.840271	898.000000
777.876831	883.000000
777.913452	908.000000
777.950012	887.000000
777.986633	885.000000
778.023193	884.000000
778.059753	883.000000
778.096375	872.000000
778.132996	920.000000
778.169556	908.000000
778.206116	909.000000
778.242737	894.000000
778.279297	907.000000
778.315857	899.000000
778.352478	904.000000
778.389038	903.000000
778.425598	925.000000
778.462219	933.000000
778.498718	924.000000
778.535339	940.000000
778.571838	943.000000
778.608459	938.000000
778.645020	924.000000
778.681580	929.000000
778.718140	917.000000
778.754761	923.000000
778.791260	927.000000
778.827881	933.000000
778.864441	932.000000
778.900940	953.000000
778.937561	970.000000
778.974121	953.000000
779.010620	949.000000
779.047241	963.000000
779.083801	978.000000
779.120300	984.000000
779.156860	1000.000000
779.193359	989.000000
779.229980	1012.000000
779.266541	1009.000000
779.303040	1014.000000
779.339600	1018.000000
779.376160	1019.000000
779.412659	1016.000000
779.449219	1008.000000
779.485779	1007.000000
779.522278	1005.000000
779.558838	1009.000000
779.595398	1006.000000
779.631897	992.000000
779.668457	1000.000000
779.705017	1019.000000
779.741516	992.000000
779.778076	979.000000
779.814575	978.000000
779.851074	979.000000
779.887634	981.000000
779.924133	983.000000
779.960693	940.000000
779.997253	947.000000
780.033691	920.000000
780.070251	898.000000
780.106812	891.000000
780.143250	847.000000
780.179810	799.000000
780.216370	754.000000
780.252808	712.000000
780.289368	678.000000
780.325867	631.000000
780.362366	607.000000
780.398865	590.000000
780.435364	548.000000
780.471863	526.000000
780.508423	483.000000
780.544861	464.000000
780.581421	445.000000
780.617920	401.000000
780.654419	389.000000
780.690918	366.000000
780.727417	345.000000
780.763916	324.000000
780.800415	325.000000
780.836914	300.000000
780.873352	303.000000
780.909912	281.000000
780.946411	277.000000
780.982849	268.000000
781.019348	269.000000
781.055786	252.000000
781.092346	249.000000
781.128845	255.000000
781.165283	241.000000
781.201782	247.000000
781.238281	235.000000
781.274719	235.000000
781.311218	227.000000
781.347717	240.000000
781.384155	220.000000
781.420654	219.000000
781.457092	228.000000
781.493591	223.000000
781.530090	218.000000
781.566528	227.000000
781.602966	226.000000
781.639465	223.000000
781.675903	214.000000
781.712402	218.000000
781.748901	222.000000
781.785278	223.000000
781.821777	219.000000
781.858276	220.000000
781.894714	227.000000
781.931152	216.000000
781.967651	218.000000
782.004089	215.000000
782.040527	219.000000
782.076965	222.000000
782.113403	219.000000
782.149902	222.000000
782.186340	218.000000
782.222778	232.000000
782.259277	221.000000
782.295654	220.000000
782.332092	227.000000
782.368591	223.000000
782.404968	221.000000
782.441467	232.000000
782.477905	232.000000
782.514282	225.000000
782.550781	239.000000
782.587219	224.000000
782.623596	237.000000
782.660095	235.000000
782.696472	235.000000
782.732910	233.000000
782.769348	225.000000
782.805786	232.000000
782.842224	239.000000
782.878662	233.000000
782.915039	237.000000
782.951477	234.000000
782.987915	234.000000
783.024292	232.000000
783.060730	243.000000
783.097168	225.000000
783.133545	223.000000
783.169983	219.000000
783.206421	217.000000
783.242798	217.000000
783.279236	221.000000
783.315613	220.000000
783.352051	218.000000
783.388489	218.000000
783.424866	217.000000
783.461304	225.000000
783.497681	233.000000
783.534058	222.000000
783.570496	227.000000
783.606934	222.000000
783.643250	227.000000
783.679687	226.000000
783.716125	217.000000
783.752441	216.000000
783.788879	229.000000
783.825317	238.000000
783.861633	234.000000
783.898071	231.000000
783.934448	231.000000
783.970825	237.000000
784.007263	234.000000
784.043579	244.000000
784.080017	244.000000
784.116394	230.000000
784.152710	227.000000
784.189148	240.000000
784.225525	241.000000
784.261902	246.000000
784.298279	248.000000
784.334656	257.000000
784.371033	249.000000
784.407410	260.000000
784.443787	253.000000
784.480164	255.000000
784.516541	247.000000
784.552856	258.000000
784.589233	254.000000
784.625610	251.000000
784.661987	275.000000
784.698364	265.000000
784.734741	262.000000
784.771057	270.000000
784.807434	261.000000
784.843811	271.000000
784.880127	252.000000
784.916504	274.000000
784.952881	273.000000
784.989197	276.000000
785.025574	276.000000
785.061951	278.000000
785.098267	290.000000
785.134644	284.000000
785.170959	281.000000
785.207275	296.000000
785.243652	311.000000
785.279968	303.000000
785.316345	307.000000
785.352722	315.000000
785.388977	310.000000
785.425354	312.000000
785.461731	316.000000
785.498047	331.000000
785.534363	314.000000
785.570679	315.000000
785.606995	315.000000
785.643372	325.000000
785.679687	337.000000
785.716003	332.000000
785.752380	322.000000
785.788635	318.000000
785.825012	333.000000
785.861328	322.000000
785.897644	319.000000
785.933960	349.000000
785.970337	364.000000
786.006592	396.000000
786.042908	425.000000
786.079285	443.000000
786.115540	501.000000
786.151855	543.000000
786.188171	600.000000
786.224487	672.000000
786.260803	724.000000
786.297119	787.000000
786.333435	858.000000
786.369751	923.000000
786.406006	988.000000
786.442322	1011.000000
786.478638	1047.000000
786.514954	1073.000000
786.551270	1088.000000
786.587585	1115.000000
786.623840	1132.000000
786.660156	1161.000000
786.696472	1168.000000
786.732727	1161.000000
786.769043	1172.000000
786.805298	1164.000000
786.841614	1206.000000
786.877930	1251.000000
786.914124	1244.000000
786.950439	1281.000000
786.986755	1287.000000
787.023010	1309.000000
787.059326	1325.000000
787.095642	1371.000000
787.131836	1411.000000
787.168152	1428.000000
787.204468	1433.000000
787.240723	1459.000000
787.276978	1467.000000
787.313293	1500.000000
787.349548	1531.000000
787.385803	1542.000000
787.422058	1538.000000
787.458313	1526.000000
787.494629	1494.000000
787.530823	1499.000000
787.567139	1489.000000
787.603455	1482.000000
787.639648	1472.000000
787.675903	1440.000000
787.712219	1412.000000
787.748413	1391.000000
787.784729	1374.000000
787.820984	1384.000000
787.857178	1370.000000
787.893494	1367.000000
787.929749	1336.000000
787.965942	1352.000000
788.002258	1352.000000
788.038452	1382.000000
788.074707	1369.000000
788.110962	1407.000000
788.147217	1379.000000
788.183472	1372.000000
788.219727	1372.000000
788.255920	1389.000000
788.292175	1428.000000
788.328430	1440.000000
788.364624	1441.000000
788.400879	1450.000000
788.437134	1455.000000
788.473328	1439.000000
788.509583	1440.000000
788.545837	1467.000000
788.582031	1473.000000
788.618286	1474.000000
788.654480	1471.000000
788.690735	1472.000000
788.726990	1478.000000
788.763184	1471.000000
788.799377	1486.000000
788.835632	1489.000000
788.871826	1522.000000
788.908081	1498.000000
788.944336	1483.000000
788.980469	1488.000000
789.016724	1493.000000
789.052979	1484.000000
789.089111	1488.000000
789.125366	1480.000000
789.161621	1468.000000
789.197754	1468.000000
789.234009	1442.000000
789.270142	1442.000000
789.306396	1454.000000
789.342590	1459.000000
789.378784	1435.000000
789.414978	1412.000000
789.451233	1413.000000
789.487366	1403.000000
789.523621	1426.000000
789.559814	1423.000000
789.595947	1442.000000
789.632202	1433.000000
789.668335	1427.000000
789.704529	1443.000000
789.740784	1460.000000
789.776917	1473.000000
789.813110	1479.000000
789.849304	1498.000000
789.885498	1499.000000
789.921692	1487.000000
789.957886	1480.000000
789.994019	1497.000000
790.030212	1507.000000
790.066406	1535.000000
790.102539	1519.000000
790.138733	1506.000000
790.174927	1482.000000
790.211060	1489.000000
790.247253	1508.000000
790.283386	1501.000000
790.319580	1518.000000
790.355774	1457.000000
790.391907	1337.000000
790.428101	1165.000000
790.464294	948.000000
790.500427	835.000000
790.536621	804.000000
790.572754	888.000000
790.608887	969.000000
790.645081	1053.000000
790.681274	1107.000000
790.717346	1147.000000
790.753540	1183.000000
790.789734	1213.000000
790.825867	1211.000000
790.862000	1217.000000
790.898132	1240.000000
790.934265	1269.000000
790.970459	1291.000000
791.006592	1315.000000
791.042725	1342.000000
791.078918	1348.000000
791.114990	1345.000000
791.151184	1351.000000
791.187317	1367.000000
791.223389	1400.000000
791.259583	1414.000000
791.295715	1416.000000
791.331848	1429.000000
791.367981	1423.000000
791.404114	1419.000000
791.440247	1443.000000
791.476379	1469.000000
791.512451	1461.000000
791.548584	1481.000000
791.584778	1461.000000
791.620850	1447.000000
791.656982	1444.000000
791.693115	1461.000000
791.729187	1475.000000
791.765381	1508.000000
791.801514	1504.000000
791.837585	1485.000000
791.873718	1481.000000
791.909851	1498.000000
791.945923	1524.000000
791.982056	1517.000000
792.018188	1515.000000
792.054260	1518.000000
792.090393	1522.000000
792.126465	1495.000000
792.162598	1493.000000
792.198669	1505.000000
792.234741	1513.000000
792.270874	1525.000000
792.307007	1491.000000
792.343079	1482.000000
792.379150	1465.000000
792.415283	1460.000000
792.451355	1482.000000
792.487488	1482.000000
792.523560	1482.000000
792.559631	1472.000000
792.595764	1435.000000
792.631836	1446.000000
792.667908	1473.000000
792.703979	1463.000000
792.740051	1473.000000
792.776184	1483.000000
792.812256	1444.000000
792.848328	1464.000000
792.884399	1464.000000
792.920471	1459.000000
792.956543	1475.000000
792.992615	1496.000000
793.028748	1478.000000
793.064758	1456.000000
793.100830	1460.000000
793.136963	1472.000000
793.172974	1469.000000
793.209045	1479.000000
793.245178	1511.000000
793.281189	1494.000000
793.317261	1462.000000
793.353271	1435.000000
793.389404	1461.000000
793.425476	1467.000000
793.461487	1460.000000
793.497559	1454.000000
793.533630	1446.000000
793.569641	1410.000000
793.605713	1405.000000
793.641785	1397.000000
793.677795	1428.000000
793.713867	1419.000000
793.749878	1439.000000
793.785950	1457.000000
793.822021	1467.000000
793.858032	1413.000000
793.894104	1420.000000
793.930176	1447.000000
793.966187	1461.000000
794.002258	1458.000000
794.038269	1466.000000
794.074280	1451.000000
794.110352	1457.000000
794.146423	1446.000000
794.182373	1469.000000
794.218445	1460.000000
794.254517	1461.000000
794.290466	1431.000000
794.326538	1405.000000
794.362549	1410.000000
794.398560	1428.000000
794.434631	1414.000000
794.470581	1393.000000
794.506653	1391.000000
794.542664	1379.000000
794.578674	1361.000000
794.614685	1347.000000
794.650757	1358.000000
794.686707	1373.000000
794.722778	1372.000000
794.758789	1378.000000
794.794739	1376.000000
794.830811	1382.000000
794.866821	1416.000000
794.902771	1415.000000
794.938843	1430.000000
794.974792	1431.000000
795.010803	1434.000000
795.046814	1435.000000
795.082825	1387.000000
795.118835	1413.000000
795.154846	1409.000000
795.190796	1421.000000
795.226807	1406.000000
795.262817	1403.000000
795.298767	1391.000000
795.334778	1375.000000
795.370850	1364.000000
795.406799	1378.000000
795.442810	1365.000000
795.478821	1371.000000
795.514709	1360.000000
795.550720	1348.000000
795.586670	1329.000000
795.622681	1330.000000
795.658691	1367.000000
795.694641	1372.000000
795.730652	1387.000000
795.766663	1376.000000
795.802551	1374.000000
795.838562	1403.000000
795.874573	1397.000000
795.910522	1394.000000
795.946472	1405.000000
795.982483	1404.000000
796.018433	1395.000000
796.054382	1379.000000
796.090393	1363.000000
796.126282	1348.000000
796.162292	1350.000000
796.198242	1369.000000
796.234192	1346.000000
796.270203	1321.000000
796.306091	1326.000000
796.342041	1351.000000
796.378052	1323.000000
796.413940	1345.000000
796.449951	1353.000000
796.485901	1338.000000
796.521790	1325.000000
796.557800	1318.000000
796.593689	1329.000000
796.629639	1356.000000
796.665649	1353.000000
796.701599	1359.000000
796.737488	1339.000000
796.773437	1344.000000
796.809387	1342.000000
796.845337	1376.000000
796.881287	1383.000000
796.917175	1393.000000
796.953125	1387.000000
796.989075	1361.000000
797.024963	1345.000000
797.060913	1338.000000
797.096863	1355.000000
797.132751	1371.000000
797.168701	1341.000000
797.204590	1348.000000
797.240540	1305.000000
797.276489	1276.000000
797.312439	1302.000000
797.348328	1299.000000
797.384277	1326.000000
797.420166	1324.000000
797.456055	1304.000000
797.492004	1283.000000
797.527893	1286.000000
797.563843	1283.000000
797.599731	1306.000000
797.635620	1316.000000
797.671570	1326.000000
797.707520	1324.000000
797.743347	1295.000000
797.779297	1285.000000
797.815125	1295.000000
797.851074	1330.000000
797.887024	1343.000000
797.922913	1317.000000
797.958801	1298.000000
797.994690	1281.000000
798.030579	1297.000000
798.066467	1306.000000
798.102356	1291.000000
798.138245	1299.000000
798.174133	1285.000000
798.210083	1279.000000
798.245911	1268.000000
798.281799	1259.000000
798.317749	1265.000000
798.353577	1279.000000
798.389465	1307.000000
798.425293	1266.000000
798.461243	1262.000000
798.497131	1260.000000
798.532959	1250.000000
798.568848	1284.000000
798.604736	1283.000000
798.640564	1265.000000
798.676453	1243.000000
798.712402	1235.000000
798.748230	1225.000000
798.784119	1250.000000
798.820007	1268.000000
798.855835	1268.000000
798.891724	1272.000000
798.927551	1236.000000
798.963379	1232.000000
798.999268	1241.000000
799.035095	1235.000000
799.070984	1237.000000
799.106873	1253.000000
799.142700	1264.000000
799.178528	1231.000000
799.214417	1215.000000
799.250244	1229.000000
799.286133	1235.000000
799.321960	1240.000000
799.357788	1246.000000
799.393677	1228.000000
799.429504	1220.000000
799.465332	1214.000000
799.501221	1217.000000
799.537048	1238.000000
799.572876	1249.000000
799.608704	1241.000000
799.644531	1243.000000
799.680359	1221.000000
799.716248	1222.000000
799.752014	1232.000000
799.787903	1220.000000
799.823730	1219.000000
799.859558	1220.000000
799.895386	1199.000000
799.931213	1175.000000
799.967041	1174.000000
800.002869	1175.000000
800.038696	1205.000000
800.074463	1182.000000
800.110352	1190.000000
800.146179	1164.000000
800.181946	1165.000000
800.217773	1173.000000
800.253540	1167.000000
800.289429	1192.000000
800.325256	1179.000000
800.361023	1169.000000
800.396851	1150.000000
800.432678	1151.000000
800.468445	1142.000000
800.504272	1168.000000
800.540100	1163.000000
800.575867	1147.000000
800.611694	1149.000000
800.647461	1123.000000
800.683289	1117.000000
800.719116	1127.000000
800.754883	1142.000000
800.790649	1122.000000
800.826477	1106.000000
800.862244	1121.000000
800.898071	1089.000000
800.933838	1084.000000
800.969604	1101.000000
801.005432	1107.000000
801.041199	1126.000000
801.076965	1109.000000
801.112793	1073.000000
801.148560	1048.000000
801.184326	1064.000000
801.220154	1068.000000
801.255859	1069.000000
801.291687	1073.000000
801.327454	1058.000000
801.363281	1053.000000
801.398987	1029.000000
801.434814	1022.000000
801.470520	1061.000000
801.506287	1031.000000
801.542114	1033.000000
801.577820	1051.000000
801.613647	1012.000000
801.649414	1006.000000
801.685120	1022.000000
801.720886	1041.000000
801.756714	1021.000000
801.792419	1017.000000
801.828186	1011.000000
801.863892	1005.000000
801.899719	995.000000
801.935486	999.000000
801.971252	1009.000000
802.006958	1009.000000
802.042725	999.000000
802.078430	1003.000000
802.114197	985.000000
802.149963	1020.000000
802.185669	989.000000
802.221436	984.000000
802.257202	981.000000
802.292908	991.000000
802.328674	981.000000
802.364441	977.000000
802.400146	983.000000
802.435913	987.000000
802.471558	983.000000
802.507324	970.000000
802.543091	972.000000
802.578796	985.000000
802.614502	988.000000
802.650269	986.000000
802.685974	987.000000
802.721741	1001.000000
802.757446	989.000000
802.793152	988.000000
802.828918	991.000000
802.864624	988.000000
802.900330	981.000000
802.936035	984.000000
802.971802	964.000000
803.007446	958.000000
803.043213	937.000000
803.078857	942.000000
803.114624	933.000000
803.150330	949.000000
803.185974	934.000000
803.221741	938.000000
803.257446	928.000000
803.293152	939.000000
803.328857	925.000000
803.364563	928.000000
803.400208	923.000000
803.435974	933.000000
803.471680	926.000000
803.507324	912.000000
803.543030	914.000000
803.578735	904.000000
803.614441	901.000000
803.650146	907.000000
803.685791	907.000000
803.721497	918.000000
803.757202	892.000000
803.792847	896.000000
803.828552	871.000000
803.864258	881.000000
803.899902	866.000000
803.935608	863.000000
803.971313	870.000000
804.006958	868.000000
804.042664	858.000000
804.078308	869.000000
804.113953	847.000000
804.149658	868.000000
804.185364	856.000000
804.221008	853.000000
804.256714	851.000000
804.292297	852.000000
804.328003	826.000000
804.363708	831.000000
804.399292	845.000000
804.434998	846.000000
804.470703	830.000000
804.506287	833.000000
804.541992	820.000000
804.577637	828.000000
804.613281	817.000000
804.648926	817.000000
804.684570	828.000000
804.720215	822.000000
804.755920	815.000000
804.791565	812.000000
804.827209	813.000000
804.862854	819.000000
804.898437	826.000000
804.934143	823.000000
804.969788	816.000000
805.005371	805.000000
805.041077	826.000000
805.076721	820.000000
805.112305	817.000000
805.147949	815.000000
805.183655	807.000000
805.219238	804.000000
805.254883	813.000000
805.290466	814.000000
805.326111	815.000000
805.361755	804.000000
805.397400	797.000000
805.432983	801.000000
805.468628	797.000000
805.504211	799.000000
805.539856	801.000000
805.575500	805.000000
805.611084	802.000000
805.646729	790.000000
805.682373	794.000000
805.717957	806.000000
805.753601	805.000000
805.789246	781.000000
805.824768	795.000000
805.860413	794.000000
805.895996	790.000000
805.931641	780.000000
805.967224	788.000000
806.002869	780.000000
806.038452	792.000000
806.074036	788.000000
806.109619	770.000000
806.145264	771.000000
806.180847	755.000000
806.216431	758.000000
806.252014	753.000000
806.287659	759.000000
806.323181	759.000000
806.358826	767.000000
806.394409	729.000000
806.429993	740.000000
806.465576	757.000000
806.501160	739.000000
806.536743	723.000000
806.572327	741.000000
806.607910	746.000000
806.643494	737.000000
806.679077	715.000000
806.714661	725.000000
806.750244	719.000000
806.785828	706.000000
806.821350	706.000000
806.856934	716.000000
806.892517	706.000000
806.928101	703.000000
806.963684	697.000000
806.999268	697.000000
807.034790	680.000000
807.070374	683.000000
807.105896	685.000000
807.141479	683.000000
807.177063	678.000000
807.212585	668.000000
807.248169	675.000000
807.283752	676.000000
807.319275	672.000000
807.354858	674.000000
807.390381	668.000000
807.425903	660.000000
807.461487	662.000000
807.497070	649.000000
807.532593	649.000000
807.568115	649.000000
807.603699	660.000000
807.639221	641.000000
807.674744	648.000000
807.710266	647.000000
807.745850	643.000000
807.781372	640.000000
807.816895	649.000000
807.852417	648.000000
807.888000	633.000000
807.923523	630.000000
807.959045	631.000000
807.994629	625.000000
808.030090	622.000000
808.065613	638.000000
808.101135	642.000000
808.136658	642.000000
808.172241	632.000000
808.207764	633.000000
808.243225	617.000000
808.278809	612.000000
808.314270	633.000000
808.349792	614.000000
808.385315	619.000000
808.420837	625.000000
808.456360	622.000000
808.491882	620.000000
808.527344	620.000000
808.562866	628.000000
808.598389	621.000000
808.633850	613.000000
808.669434	605.000000
808.704895	610.000000
808.740417	618.000000
808.775940	615.000000
808.811462	600.000000
808.846924	605.000000
808.882385	604.000000
808.917847	600.000000
808.953369	590.000000
808.988892	593.000000
809.024353	599.000000
809.059875	598.000000
809.095398	596.000000
809.130798	591.000000
809.166321	581.000000
809.201843	587.000000
809.237305	575.000000
809.272766	585.000000
809.308228	572.000000
809.343750	567.000000
809.379211	571.000000
809.414734	585.000000
809.450134	585.000000
809.485657	565.000000
809.521118	574.000000
809.556580	570.000000
809.592102	560.000000
809.627502	559.000000
809.663025	549.000000
809.698486	549.000000
809.733887	551.000000
809.769409	543.000000
809.804871	533.000000
809.840271	535.000000
809.875793	538.000000
809.911194	537.000000
809.946655	542.000000
809.982178	531.000000
810.017639	528.000000
810.053040	528.000000
810.088501	532.000000
810.123901	524.000000
810.159424	528.000000
810.194885	522.000000
810.230286	523.000000
810.265747	520.000000
810.301208	518.000000
810.336609	512.000000
810.372070	506.000000
810.407532	509.000000
810.442932	513.000000
810.478394	511.000000
810.513794	511.000000
810.549255	506.000000
810.584717	511.000000
810.620117	490.000000
810.655518	498.000000
810.690979	501.000000
810.726379	501.000000
810.761841	497.000000
810.797302	496.000000
810.832642	488.000000
810.868103	503.000000
810.903564	494.000000
810.938904	496.000000
810.974365	489.000000
811.009827	505.000000
811.045166	478.000000
811.080627	482.000000
811.115967	483.000000
811.151428	488.000000
811.186829	481.000000
811.222229	485.000000
811.257629	476.000000
811.293091	487.000000
811.328430	493.000000
811.363892	478.000000
811.399292	482.000000
811.434631	477.000000
811.470093	485.000000
811.505493	477.000000
811.540833	475.000000
811.576294	481.000000
811.611694	469.000000
811.647034	461.000000
811.682434	472.000000
811.717773	474.000000
811.753235	480.000000
811.788635	475.000000
811.823975	478.000000
811.859375	482.000000
811.894775	460.000000
811.930115	460.000000
811.965515	461.000000
812.000916	464.000000
812.036255	458.000000
812.071655	463.000000
812.106995	469.000000
812.142395	460.000000
812.177795	466.000000
812.213196	457.000000
812.248474	457.000000
812.283875	446.000000
812.319214	453.000000
812.354614	450.000000
812.390015	452.000000
812.425293	441.000000
812.460693	445.000000
812.496094	445.000000
812.531433	437.000000
812.566772	440.000000
812.602173	442.000000
812.637451	434.000000
812.672852	433.000000
812.708191	442.000000
812.743530	437.000000
812.778931	425.000000
812.814270	424.000000
812.849609	430.000000
812.884949	422.000000
812.920227	420.000000
812.955627	447.000000
812.990967	435.000000
813.026306	427.000000
813.061646	409.000000
813.096985	408.000000
813.132324	401.000000
813.167664	409.000000
813.203003	411.000000
813.238281	402.000000
813.273682	399.000000
813.308960	395.000000
813.344299	401.000000
813.379639	398.000000
813.414978	404.000000
813.450256	393.000000
813.485596	401.000000
813.520874	385.000000
813.556213	393.000000
813.591614	390.000000
813.626831	382.000000
813.662170	391.000000
813.697510	396.000000
813.732788	381.000000
813.768127	387.000000
813.803467	390.000000
813.838745	385.000000
813.874084	389.000000
813.909363	384.000000
813.944641	386.000000
813.979980	380.000000
814.015320	387.000000
814.050598	389.000000
814.085876	384.000000
814.121155	380.000000
814.156494	375.000000
814.191772	385.000000
814.227051	375.000000
814.262390	385.000000
814.297668	384.000000
814.332947	375.000000
814.368225	368.000000
814.403564	378.000000
814.438782	368.000000
814.474121	376.000000
814.509338	365.000000
814.544617	377.000000
814.579956	370.000000
814.615173	377.000000
814.650513	368.000000
814.685791	368.000000
814.721008	365.000000
814.756348	370.000000
814.791626	364.000000
814.826843	369.000000
814.862122	363.000000
814.897400	357.000000
814.932678	364.000000
814.967957	360.000000
815.003235	363.000000
815.038452	354.000000
815.073730	354.000000
815.108948	360.000000
815.144226	358.000000
815.179504	356.000000
815.214722	342.000000
815.250000	340.000000
815.285278	351.000000
815.320496	345.000000
815.355774	352.000000
815.391052	344.000000
815.426270	351.000000
815.461487	338.000000
815.496765	336.000000
815.531982	336.000000
815.567261	339.000000
815.602539	340.000000
815.637695	335.000000
815.672974	348.000000
815.708191	342.000000
815.743408	349.000000
815.778687	340.000000
815.813904	346.000000
815.849121	328.000000
815.884399	327.000000
815.919556	330.000000
815.954834	334.000000
815.990051	330.000000
816.025269	339.000000
816.060486	327.000000
816.095703	329.000000
816.130920	328.000000
816.166199	331.000000
816.201416	325.000000
816.236572	329.000000
816.271851	317.000000
816.307007	328.000000
816.342224	313.000000
816.377441	324.000000
816.412659	306.000000
816.447876	320.000000
816.483093	318.000000
816.518250	315.000000
816.553467	308.000000
816.588745	323.000000
816.623901	311.000000
816.659119	307.000000
816.694275	313.000000
816.729492	308.000000
816.764709	341.000000
816.799927	308.000000
816.835083	306.000000
816.870300	300.000000
816.905457	311.000000
816.940674	311.000000
816.975830	305.000000
817.010986	301.000000
817.046204	297.000000
817.081421	298.000000
817.116577	302.000000
817.151733	312.000000
817.186951	308.000000
817.222107	306.000000
817.257324	308.000000
817.292419	307.000000
817.327637	301.000000
817.362854	304.000000
817.398010	295.000000
817.433167	298.000000
817.468323	297.000000
817.503479	302.000000
817.538635	312.000000
817.573853	304.000000
817.608948	294.000000
817.644165	304.000000
817.679321	293.000000
817.714478	295.000000
817.749634	302.000000
817.784790	308.000000
817.819946	305.000000
817.855103	277.000000
817.890198	298.000000
817.925415	282.000000
817.960571	293.000000
817.995667	288.000000
818.030823	296.000000
818.066040	291.000000
818.101135	293.000000
818.136292	289.000000
818.171448	290.000000
818.206543	292.000000
818.241699	291.000000
818.276855	285.000000
818.311951	289.000000
818.347107	281.000000
818.382263	292.000000
818.417358	297.000000
818.452515	299.000000
818.487610	299.000000
818.522766	290.000000
818.557922	296.000000
818.593018	293.000000
818.628113	286.000000
818.663269	289.000000
818.698364	290.000000
818.733521	282.000000
818.768677	282.000000
818.803711	278.000000
818.838867	282.000000
818.874023	284.000000
818.909058	284.000000
818.944214	281.000000
818.979370	284.000000
819.014404	277.000000
819.049561	276.000000
819.084595	277.000000
819.119751	275.000000
819.154846	277.000000
819.189941	275.000000
819.225037	273.000000
819.260193	267.000000
819.295227	271.000000
819.330322	263.000000
819.365479	265.000000
819.400513	299.000000
819.435608	259.000000
819.470764	258.000000
819.505798	257.000000
819.540894	264.000000
819.575989	259.000000
819.611084	274.000000
819.646179	269.000000
819.681213	269.000000
819.716309	263.000000
819.751404	264.000000
819.786438	262.000000
819.821533	255.000000
819.856628	260.000000
819.891663	269.000000
819.926758	275.000000
819.961853	267.000000
819.996887	260.000000
820.031982	265.000000
820.067017	261.000000
820.102112	290.000000
820.137207	257.000000
820.172302	275.000000
820.207275	260.000000
820.242371	256.000000
820.277405	255.000000
820.312500	263.000000
820.347534	263.000000
820.382568	269.000000
820.417664	256.000000
820.452759	254.000000
820.487732	253.000000
820.522827	259.000000
820.557861	252.000000
820.592896	255.000000
820.627930	254.000000
820.662964	251.000000
820.698059	259.000000
820.733093	247.000000
820.768127	258.000000
820.803162	253.000000
820.838196	256.000000
820.873230	249.000000
820.908264	255.000000
820.943298	250.000000
820.978333	256.000000
821.013367	252.000000
821.048401	257.000000
821.083435	259.000000
821.118469	243.000000
821.153503	259.000000
821.188477	251.000000
821.223511	242.000000
821.258484	245.000000
821.293579	251.000000
821.328613	242.000000
821.363647	244.000000
821.398621	243.000000
821.433655	241.000000
821.468628	259.000000
821.503662	242.000000
821.538696	255.000000
821.573669	240.000000
821.608704	247.000000
821.643677	246.000000
821.678650	249.000000
821.713684	255.000000
821.748718	245.000000
821.783691	247.000000
821.818726	244.000000
821.853638	250.000000
821.888672	245.000000
821.923706	237.000000
821.958618	239.000000
821.993652	244.000000
822.028687	246.000000
822.063599	247.000000
822.098633	243.000000
822.133667	239.000000
822.168579	237.000000
822.203613	243.000000
822.238586	232.000000
822.273560	245.000000
822.308533	233.000000
822.343567	236.000000
822.378479	235.000000
822.413452	239.000000
822.448425	228.000000
822.483398	243.000000
822.518372	240.000000
822.553345	234.000000
822.588318	246.000000
822.623291	233.000000
822.658203	229.000000
822.693237	231.000000
822.728210	227.000000
822.763123	234.000000
822.798096	225.000000
822.833069	229.000000
822.867981	234.000000
822.902954	238.000000
822.937927	235.000000
822.972900	240.000000
823.007874	219.000000
823.042725	236.000000
823.077698	240.000000
823.112671	228.000000
823.147583	232.000000
823.182556	233.000000
823.217529	235.000000
823.252441	227.000000
823.287415	238.000000
823.322388	232.000000
823.357239	232.000000
823.392212	237.000000
823.427185	234.000000
823.462097	225.000000
823.497009	229.000000
823.531982	227.000000
823.566895	229.000000
823.601807	220.000000
823.636719	228.000000
823.671631	230.000000
823.706604	227.000000
823.741455	226.000000
823.776428	219.000000
823.811340	226.000000
823.846252	237.000000
823.881165	234.000000
823.916138	227.000000
823.950989	238.000000
823.985901	221.000000
824.020813	225.000000
824.055725	225.000000
824.090637	221.000000
824.125610	226.000000
824.160461	220.000000
824.195374	227.000000
824.230225	226.000000
824.265198	214.000000
824.300110	222.000000
824.334961	233.000000
824.369873	212.000000
824.404785	228.000000
824.439636	230.000000
824.474548	216.000000
824.509460	214.000000
824.544312	228.000000
824.579224	223.000000
824.614075	224.000000
824.648987	223.000000
824.683899	225.000000
824.718811	220.000000
824.753662	229.000000
824.788574	228.000000
824.823364	221.000000
824.858276	217.000000
824.893188	226.000000
824.928040	229.000000
824.962952	223.000000
824.997803	223.000000
825.032654	219.000000
825.067566	222.000000
825.102417	217.000000
825.137268	220.000000
825.172119	217.000000
825.206970	220.000000
825.241882	215.000000
825.276733	220.000000
825.311646	219.000000
825.346436	212.000000
825.381348	208.000000
825.416138	222.000000
825.450989	213.000000
825.485901	207.000000
825.520691	206.000000
825.555542	212.000000
825.590454	215.000000
825.625244	211.000000
825.660095	224.000000
825.695007	217.000000
825.729797	212.000000
825.764648	212.000000
825.799438	205.000000
825.834290	220.000000
825.869202	206.000000
825.903992	214.000000
825.938843	209.000000
825.973694	214.000000
826.008484	226.000000
826.043335	214.000000
826.078186	211.000000
826.112976	223.000000
826.147827	221.000000
826.182678	227.000000
826.217468	204.000000
826.252319	219.000000
826.287109	207.000000
826.321899	217.000000
826.356750	215.000000
826.391541	205.000000
826.426392	219.000000
826.461182	214.000000
826.495972	206.000000
826.530823	199.000000
826.565613	217.000000
826.600403	204.000000
826.635254	214.000000
826.670044	203.000000
826.704834	202.000000
826.739685	202.000000
826.774475	215.000000
826.809265	211.000000
826.844055	211.000000
826.878906	220.000000
826.913635	215.000000
826.948425	212.000000
826.983215	213.000000
827.018005	212.000000
827.052856	206.000000
827.087585	215.000000
827.122375	202.000000
827.157227	207.000000
827.191956	221.000000
827.226746	202.000000
827.261536	214.000000
827.296265	201.000000
827.331116	207.000000
827.365906	209.000000
827.400635	202.000000
827.435425	199.000000
827.470215	218.000000
827.504944	206.000000
827.539734	213.000000
827.574463	205.000000
827.609253	218.000000
827.644043	206.000000
827.678772	208.000000
827.713562	206.000000
827.748352	201.000000
827.783081	201.000000
827.817871	208.000000
827.852600	202.000000
827.887329	207.000000
827.922119	193.000000
827.956848	208.000000
827.991638	217.000000
828.026367	209.000000
828.061157	209.000000
828.095886	205.000000
828.130615	222.000000
828.165344	194.000000
828.200073	207.000000
828.234863	202.000000
828.269592	201.000000
828.304321	203.000000
828.339111	207.000000
828.373779	203.000000
828.408569	208.000000
828.443298	207.000000
828.477966	200.000000
828.512756	199.000000
828.547424	200.000000
828.582214	201.000000
828.616943	200.000000
828.651672	199.000000
828.686340	211.000000
828.721130	199.000000
828.755798	204.000000
828.790527	205.000000
828.825256	204.000000
828.859924	202.000000
828.894714	210.000000
828.929443	208.000000
828.964111	202.000000
828.998840	208.000000
829.033569	201.000000
829.068237	200.000000
829.102966	198.000000
829.137634	203.000000
829.172363	207.000000
829.207092	204.000000
829.241821	199.000000
829.276489	194.000000
829.311157	205.000000
829.345825	199.000000
829.380554	208.000000
829.415283	199.000000
829.449951	192.000000
829.484619	214.000000
829.519348	209.000000
829.554016	204.000000
829.588745	200.000000
829.623413	193.000000
829.658081	214.000000
829.692749	197.000000
829.727417	204.000000
829.762146	203.000000
829.796814	193.000000
829.831482	200.000000
829.866150	200.000000
829.900879	200.000000
829.935486	198.000000
829.970154	203.000000
830.004883	211.000000
830.039490	205.000000
830.074219	191.000000
830.108887	204.000000
830.143494	197.000000
830.178223	192.000000
830.212891	200.000000
830.247498	199.000000
830.282166	206.000000
830.316772	209.000000
830.351501	199.000000
830.386169	197.000000
830.420776	200.000000
830.455444	198.000000
830.490112	194.000000
830.524719	197.000000
830.559387	204.000000
830.594055	205.000000
830.628662	201.000000
830.663330	199.000000
830.697998	205.000000
830.732605	202.000000
830.767273	204.000000
830.801941	199.000000
830.836487	212.000000
830.871155	203.000000
830.905762	203.000000
830.940430	188.000000
830.975098	195.000000
831.009644	200.000000
831.044312	209.000000
831.078979	200.000000
831.113525	189.000000
831.148193	201.000000
831.182861	198.000000
831.217407	197.000000
831.252075	222.000000
831.286621	195.000000
831.321289	194.000000
831.355896	198.000000
831.390564	206.000000
831.425110	197.000000
831.459778	208.000000
831.494324	211.000000
831.528931	199.000000
831.563599	203.000000
831.598145	194.000000
831.632751	200.000000
831.667419	198.000000
831.701965	201.000000
831.736572	201.000000
831.771179	193.000000
831.805786	200.000000
831.840393	200.000000
831.874939	192.000000
831.909546	203.000000
831.944153	191.000000
831.978760	203.000000
832.013306	193.000000
832.047913	202.000000
832.082458	207.000000
832.117065	199.000000
832.151672	206.000000
832.186218	202.000000
832.220825	206.000000
832.255432	192.000000
832.289978	196.000000
832.324585	203.000000
832.359192	199.000000
832.393677	200.000000
832.428284	200.000000
832.462830	199.000000
832.497437	196.000000
832.531982	205.000000
832.566589	193.000000
832.601135	205.000000
832.635681	186.000000
832.670227	197.000000
832.704773	206.000000
832.739380	202.000000
832.773926	201.000000
832.808472	198.000000
832.843079	199.000000
832.877563	202.000000
832.912170	194.000000
832.946716	190.000000
832.981201	202.000000
833.015808	199.000000
833.050293	196.000000
833.084839	191.000000
833.119446	191.000000
833.153992	205.000000
833.188477	196.000000
833.223022	196.000000
833.257568	200.000000
833.292114	208.000000
833.326660	210.000000
833.361145	199.000000
833.395691	190.000000
833.430237	199.000000
833.464783	206.000000
833.499329	195.000000
833.533875	197.000000
833.568359	206.000000
833.602905	202.000000
833.637390	203.000000
833.671875	196.000000
833.706421	199.000000
833.740906	197.000000
833.775452	188.000000
833.809998	196.000000
833.844482	208.000000
833.879028	201.000000
833.913513	194.000000
833.947998	206.000000
833.982544	193.000000
834.017090	195.000000
834.051514	187.000000
834.086060	204.000000
834.120544	196.000000
834.155029	200.000000
834.189575	197.000000
834.223999	201.000000
834.258545	200.000000
834.293030	201.000000
834.327515	194.000000
834.362000	196.000000
834.396545	204.000000
834.430969	195.000000
834.465454	201.000000
834.500000	194.000000
834.534424	202.000000
834.568970	189.000000
834.603455	191.000000
834.637878	191.000000
834.672363	199.000000
834.706909	199.000000
834.741333	195.000000
834.775818	193.000000
834.810242	196.000000
834.844727	202.000000
834.879211	196.000000
834.913635	201.000000
834.948181	201.000000
834.982666	204.000000
835.017090	202.000000
835.051575	209.000000
835.086060	201.000000
835.120483	204.000000
835.154907	204.000000
835.189331	196.000000
835.223816	205.000000
835.258301	193.000000
835.292786	197.000000
835.327209	204.000000
835.361694	197.000000
835.396057	193.000000
835.430542	201.000000
835.465027	197.000000
835.499390	192.000000
835.533875	215.000000
835.568359	192.000000
835.602722	190.000000
835.637207	204.000000
835.671692	191.000000
835.706055	213.000000
835.740540	202.000000
835.774902	204.000000
835.809387	196.000000
835.843811	194.000000
835.878235	202.000000
835.912659	190.000000
835.947083	189.000000
835.981506	195.000000
836.015930	190.000000
836.050354	206.000000
836.084778	200.000000
836.119202	203.000000
836.153625	211.000000
836.187988	197.000000
836.222473	196.000000
836.256897	201.000000
836.291260	197.000000
836.325684	199.000000
836.360046	195.000000
836.394470	195.000000
836.428894	205.000000
836.463318	198.000000
836.497681	203.000000
836.532104	209.000000
836.566467	204.000000
836.600891	195.000000
836.635315	205.000000
836.669678	204.000000
836.704102	201.000000
836.738525	199.000000
836.772888	193.000000
836.807251	195.000000
836.841675	204.000000
836.876038	195.000000
836.910461	192.000000
836.944763	199.000000
836.979187	195.000000
837.013611	202.000000
837.047974	193.000000
837.082336	209.000000
837.116699	204.000000
837.151062	198.000000
837.185486	193.000000
837.219849	195.000000
837.254211	203.000000
837.288574	199.000000
837.322937	195.000000
837.357300	186.000000
837.391663	212.000000
837.426086	202.000000
837.460388	198.000000
837.494751	206.000000
837.529114	198.000000
837.563477	206.000000
837.597839	205.000000
837.632141	197.000000
837.666565	203.000000
837.700928	198.000000
837.735229	204.000000
837.769592	206.000000
837.803955	204.000000
837.838257	197.000000
837.872620	198.000000
837.906982	209.000000
837.941284	204.000000
837.975647	204.000000
838.010010	203.000000
838.044312	194.000000
838.078674	197.000000
838.112976	203.000000
838.147339	204.000000
838.181702	205.000000
838.216003	206.000000
838.250366	199.000000
838.284668	203.000000
838.318970	198.000000
838.353333	195.000000
838.387634	202.000000
838.421936	198.000000
838.456299	200.000000
838.490601	212.000000
838.524902	205.000000
838.559265	199.000000
838.593567	206.000000
838.627869	195.000000
838.662170	203.000000
838.696472	192.000000
838.730774	197.000000
838.765137	201.000000
838.799377	182.000000
838.833740	203.000000
838.868042	203.000000
838.902283	193.000000
838.936646	209.000000
838.970947	198.000000
839.005188	202.000000
839.039551	191.000000
839.073792	203.000000
839.108093	196.000000
839.142395	207.000000
839.176697	191.000000
839.210937	201.000000
839.245300	210.000000
839.279541	191.000000
839.313843	200.000000
839.348145	204.000000
839.382385	202.000000
839.416687	206.000000
839.450989	204.000000
839.485229	197.000000
839.519531	194.000000
839.553833	203.000000
839.588013	202.000000
839.622314	200.000000
839.656555	202.000000
839.690857	197.000000
839.725159	199.000000
839.759460	195.000000
839.793640	197.000000
839.827942	196.000000
839.862183	194.000000
839.896423	200.000000
839.930725	208.000000
839.964966	203.000000
839.999207	206.000000
840.033508	204.000000
840.067688	200.000000
840.101990	206.000000
840.136230	199.000000
840.170471	207.000000
840.204712	192.000000
840.238953	194.000000
840.273193	198.000000
840.307434	203.000000
840.341736	193.000000
840.375916	194.000000
840.410217	196.000000
840.444397	202.000000
840.478638	203.000000
840.512878	203.000000
840.547119	202.000000
840.581360	202.000000
840.615601	205.000000
840.649780	209.000000
840.684021	201.000000
840.718262	203.000000
840.752441	210.000000
840.786682	200.000000
840.820862	200.000000
840.855103	205.000000
840.889343	200.000000
840.923584	206.000000
840.957764	203.000000
840.992004	203.000000
841.026184	211.000000
841.060425	201.000000
841.094666	196.000000
841.128845	199.000000
841.163025	198.000000
841.197266	202.000000
841.231445	202.000000
841.265686	198.000000
841.299866	192.000000
841.334045	208.000000
841.368286	197.000000
841.402405	207.000000
841.436646	201.000000
841.470825	196.000000
841.505005	201.000000
841.539185	196.000000
841.573425	196.000000
841.607544	202.000000
841.641785	201.000000
841.675964	192.000000
841.710144	201.000000
841.744324	193.000000
841.778503	195.000000
841.812683	196.000000
841.846863	203.000000
841.881042	209.000000
841.915222	195.000000
841.949402	213.000000
841.983521	191.000000
842.017700	200.000000
842.051880	199.000000
842.086060	202.000000
842.120239	203.000000
842.154419	198.000000
842.188538	204.000000
842.222717	197.000000
842.256897	209.000000
842.291016	197.000000
842.325195	202.000000
842.359375	211.000000
842.393494	210.000000
842.427673	201.000000
842.461853	205.000000
842.495911	209.000000
842.530090	205.000000
842.564209	196.000000
842.598389	208.000000
842.632568	199.000000
842.666626	203.000000
842.700806	198.000000
842.734985	198.000000
842.769043	196.000000
842.803223	201.000000
842.837402	196.000000
842.871460	195.000000
842.905640	205.000000
842.939697	197.000000
842.973877	198.000000
843.007996	209.000000
843.042175	206.000000
843.076233	198.000000
843.110413	200.000000
843.144470	212.000000
843.178589	201.000000
843.212769	200.000000
843.246826	204.000000
843.280945	196.000000
843.315125	196.000000
843.349182	200.000000
843.383301	204.000000
843.417419	214.000000
843.451538	197.000000
843.485657	196.000000
843.519714	197.000000
843.553833	207.000000
843.587952	193.000000
843.622070	199.000000
843.656128	209.000000
843.690247	198.000000
843.724304	202.000000
843.758423	202.000000
843.792542	195.000000
843.826599	200.000000
843.860718	199.000000
843.894836	195.000000
843.928894	203.000000
843.963013	204.000000
843.997070	195.000000
844.031128	194.000000
844.065247	207.000000
844.099304	201.000000
844.133362	202.000000
844.167480	198.000000
844.201599	208.000000
844.235596	202.000000
844.269714	202.000000
844.303711	201.000000
844.337830	193.000000
844.371948	205.000000
844.405945	198.000000
844.440063	193.000000
844.474121	217.000000
844.508118	195.000000
844.542236	198.000000
844.576294	201.000000
844.610352	193.000000
844.644409	201.000000
844.678406	191.000000
844.712524	200.000000
844.746582	207.000000
844.780640	203.000000
844.814636	198.000000
844.848755	212.000000
844.882751	204.000000
844.916809	205.000000
844.950867	203.000000
844.984863	213.000000
845.018921	200.000000
845.052979	197.000000
845.086975	204.000000
845.121033	197.000000
845.155090	198.000000
845.189087	209.000000
845.223145	200.000000
845.257141	203.000000
845.291199	198.000000
845.325256	209.000000
845.359253	200.000000
845.393250	211.000000
845.427307	202.000000
845.461304	205.000000
845.495361	199.000000
845.529358	209.000000
845.563354	197.000000
845.597412	198.000000
845.631409	208.000000
845.665405	209.000000
845.699463	201.000000
845.733459	201.000000
845.767456	204.000000
845.801453	197.000000
845.835449	202.000000
845.869446	203.000000
845.903503	205.000000
845.937439	197.000000
845.971497	206.000000
846.005493	195.000000
846.039429	199.000000
846.073486	214.000000
846.107483	196.000000
846.141418	199.000000
846.175476	198.000000
846.209473	208.000000
846.243408	191.000000
846.277405	203.000000
846.311401	198.000000
846.345337	197.000000
846.379395	203.000000
846.413330	199.000000
846.447327	204.000000
846.481323	197.000000
846.515259	201.000000
846.549255	200.000000
846.583252	206.000000
846.617187	193.000000
846.651184	200.000000
846.685120	198.000000
846.719055	210.000000
846.753052	202.000000
846.786987	209.000000
846.820984	195.000000
846.854980	208.000000
846.888916	198.000000
846.922852	204.000000
846.956848	209.000000
846.990723	195.000000
847.024719	200.000000
847.058716	201.000000
847.092590	207.000000
847.126587	208.000000
847.160522	192.000000
847.194458	205.000000
847.228455	192.000000
847.262390	193.000000
847.296265	197.000000
847.330261	209.000000
847.364136	196.000000
847.398132	197.000000
847.432068	199.000000
847.466003	199.000000
847.499939	193.000000
847.533875	201.000000
847.567749	196.000000
847.601746	200.000000
847.635681	203.000000
847.669556	188.000000
847.703491	205.000000
847.737427	218.000000
847.771301	193.000000
847.805237	204.000000
847.839233	202.000000
847.873108	203.000000
847.907043	199.000000
847.940918	209.000000
847.974854	203.000000
848.008789	206.000000
848.042664	201.000000
848.076538	205.000000
848.110474	203.000000
848.144348	202.000000
848.178284	192.000000
848.212219	201.000000
848.246094	199.000000
848.279968	201.000000
848.313904	207.000000
848.347778	197.000000
848.381653	198.000000
848.415588	196.000000
848.449463	197.000000
848.483337	199.000000
848.517212	206.000000
848.551086	196.000000
848.585022	196.000000
848.618835	209.000000
848.652771	195.000000
848.686646	192.000000
848.720520	211.000000
848.754395	198.000000
848.788330	203.000000
848.822144	206.000000
848.856018	199.000000
848.889954	209.000000
848.923767	198.000000
848.957642	197.000000
848.991577	202.000000
849.025391	198.000000
849.059265	199.000000
849.093079	195.000000
849.126953	193.000000
849.160828	205.000000
849.194641	204.000000
849.228577	201.000000
849.262451	201.000000
849.296265	197.000000
849.330139	194.000000
849.364014	204.000000
849.397827	202.000000
849.431702	203.000000
849.465515	205.000000
849.499329	189.000000
849.533203	198.000000
849.567078	193.000000
849.600891	201.000000
849.634766	201.000000
849.668518	205.000000
849.702393	200.000000
849.736267	194.000000
849.770020	218.000000
849.803894	202.000000
849.837769	204.000000
849.871521	198.000000
849.905396	204.000000
849.939270	197.000000
849.973022	195.000000
850.006897	199.000000
850.040710	209.000000
850.074524	200.000000
850.108337	198.000000
850.142151	203.000000
850.175964	207.000000
850.209778	194.000000
850.243530	187.000000
850.277405	204.000000
850.311218	199.000000
850.344971	198.000000
850.378845	209.000000
850.412659	196.000000
850.446411	204.000000
850.480225	199.000000
850.514038	207.000000
850.547791	200.000000
850.581665	201.000000
850.615417	196.000000
850.649231	206.000000
850.683044	198.000000
850.716858	200.000000
850.750610	203.000000
850.784424	202.000000
850.818176	195.000000
850.851929	198.000000
850.885742	200.000000
850.919495	195.000000
850.953308	207.000000
850.987122	208.000000
851.020874	186.000000
851.054626	194.000000
851.088440	203.000000
851.122192	205.000000
851.156006	206.000000
851.189697	200.000000
851.223511	197.000000
851.257263	203.000000
851.291077	205.000000
851.324829	197.000000
851.358582	199.000000
851.392334	198.000000
851.426086	197.000000
851.459900	208.000000
851.493591	202.000000
851.527344	195.000000
851.561157	201.000000
851.594849	202.000000
851.628662	202.000000
851.662415	206.000000
851.696106	206.000000
851.729858	199.000000
851.763611	195.000000
851.797363	203.000000
851.831116	197.000000
851.864868	205.000000
851.898560	204.000000
851.932312	193.000000
851.966064	205.000000
851.999817	199.000000
852.033569	197.000000
852.067261	202.000000
852.101013	195.000000
852.134766	195.000000
852.168457	188.000000
852.202209	205.000000
852.235901	197.000000
852.269592	202.000000
852.303345	212.000000
852.337036	201.000000
852.370789	202.000000
852.404541	206.000000
852.438171	198.000000
852.471924	203.000000
852.505676	192.000000
852.539307	203.000000
852.573059	195.000000
852.606812	200.000000
852.640442	197.000000
852.674194	209.000000
852.707886	209.000000
852.741577	209.000000
852.775269	193.000000
852.809021	202.000000
852.842651	199.000000
852.876404	204.000000
852.910034	201.000000
852.943787	207.000000
852.977478	201.000000
853.011108	197.000000
853.044861	194.000000
853.078552	214.000000
853.112183	201.000000
853.145874	203.000000
853.179626	189.000000
853.213257	201.000000
853.246948	194.000000
853.280640	207.000000
853.314270	200.000000
853.347961	207.000000
853.381653	205.000000
853.415283	202.000000
853.448975	194.000000
853.482605	207.000000
853.516296	203.000000
853.549988	192.000000
853.583618	202.000000
853.617310	205.000000
853.651001	204.000000
853.684631	196.000000
853.718323	197.000000
853.751953	206.000000
853.785583	194.000000
853.819275	207.000000
853.852966	202.000000
853.886536	191.000000
853.920227	197.000000
853.953918	199.000000
853.987488	199.000000
854.021179	201.000000
854.054749	207.000000
854.088440	205.000000
854.122131	196.000000
854.155701	198.000000
854.189331	194.000000
854.223022	204.000000
854.256592	201.000000
854.290283	196.000000
854.323914	206.000000
854.357483	199.000000
854.391174	205.000000
854.424744	213.000000
854.458374	200.000000
854.492065	211.000000
854.525696	202.000000
854.559265	203.000000
854.592896	210.000000
854.626465	198.000000
854.660095	202.000000
854.693787	202.000000
854.727356	199.000000
854.760986	199.000000
854.794617	205.000000
854.828186	198.000000
854.861816	201.000000
854.895447	202.000000
854.929016	202.000000
854.962585	197.000000
854.996155	207.000000
855.029785	205.000000
855.063416	203.000000
855.097046	202.000000
855.130615	194.000000
855.164185	200.000000
855.197754	203.000000
855.231384	207.000000
855.264954	197.000000
855.298523	209.000000
855.332153	206.000000
855.365723	211.000000
855.399292	195.000000
855.432922	205.000000
855.466492	200.000000
855.500061	197.000000
855.533630	196.000000
855.567200	206.000000
855.600769	205.000000
855.634338	205.000000
855.667969	199.000000
855.701477	198.000000
855.735046	198.000000
855.768616	194.000000
855.802185	199.000000
855.835754	218.000000
855.869324	189.000000
855.902893	199.000000
855.936401	206.000000
855.969971	199.000000
856.003540	191.000000
856.037109	201.000000
856.070618	197.000000
856.104187	193.000000
856.137695	195.000000
856.171265	189.000000
856.204834	198.000000
856.238403	209.000000
856.271912	190.000000
856.305481	206.000000
856.338989	195.000000
856.372559	205.000000
856.406128	199.000000
856.439636	208.000000
856.473145	194.000000
856.506653	207.000000
856.540222	208.000000
856.573792	212.000000
856.607300	208.000000
856.640808	200.000000
856.674377	202.000000
856.707825	228.000000
856.741394	210.000000
856.774902	194.000000
856.808472	193.000000
856.841980	204.000000
856.875488	210.000000
856.908936	191.000000
856.942505	201.000000
856.976013	195.000000
857.009521	196.000000
857.043030	199.000000
857.076477	199.000000
857.110046	208.000000
857.143555	207.000000
857.177063	205.000000
857.210571	199.000000
857.244080	193.000000
857.277527	200.000000
857.311035	198.000000
857.344543	208.000000
857.378052	195.000000
857.411499	210.000000
857.445068	213.000000
857.478516	200.000000
857.512024	192.000000
857.545532	199.000000
857.578979	200.000000
857.612427	202.000000
857.645874	197.000000
857.679382	198.000000
857.712891	204.000000
857.746399	205.000000
857.779846	206.000000
857.813354	205.000000
857.846741	200.000000
857.880249	195.000000
857.913757	205.000000
857.947266	203.000000
857.980652	200.000000
858.014160	200.000000
858.047546	202.000000
858.081055	199.000000
858.114563	210.000000
858.147949	194.000000
858.181458	204.000000
858.214844	201.000000
858.248352	190.000000
858.281799	204.000000
858.315308	210.000000
858.348694	205.000000
858.382141	207.000000
858.415588	201.000000
858.449036	208.000000
858.482483	201.000000
858.515930	198.000000
858.549377	201.000000
858.582825	209.000000
858.616211	204.000000
858.649658	204.000000
858.683105	190.000000
858.716553	198.000000
858.750000	193.000000
858.783386	195.000000
858.816833	194.000000
858.850281	203.000000
858.883728	197.000000
858.917114	198.000000
858.950562	207.000000
858.983948	207.000000
859.017395	204.000000
859.050781	199.000000
859.084167	190.000000
859.117615	195.000000
859.151062	205.000000
859.184448	199.000000
859.217834	199.000000
859.251282	202.000000
859.284668	195.000000
859.318054	193.000000
859.351440	198.000000
859.384888	205.000000
859.418274	193.000000
859.451721	194.000000
859.485046	203.000000
859.518494	205.000000
859.551819	200.000000
859.585266	201.000000
859.618652	205.000000
859.652039	193.000000
859.685425	192.000000
859.718811	192.000000
859.752197	190.000000
859.785583	207.000000
859.819031	211.000000
859.852356	203.000000
859.885742	199.000000
859.919067	197.000000
859.952454	198.000000
859.985901	206.000000
860.019287	198.000000
860.052612	0.000000
860.085999	0.000000
860.119324	0.000000
860.152710	0.000000
860.186096	0.000000
860.219421	0.000000
860.252808	0.000000
860.286133	0.000000
860.319519	0.000000
860.352905	0.000000
860.386292	0.000000
860.419617	0.000000
860.452942	0.000000
860.486267	0.000000
860.519653	0.000000
860.553040	0.000000
860.586365	0.000000
860.619690	0.000000
860.653076	0.000000
860.686340	0.000000
860.719727	0.000000
860.753113	0.000000
860.786377	0.000000
860.819763	0.000000
860.853027	0.000000
860.886414	0.000000
860.919739	0.000000
860.953125	0.000000
860.986389	0.000000
861.019714	0.000000
861.053040	0.000000
861.086365	0.000000
861.119690	0.000000
861.153076	0.000000
861.186340	0.000000
861.219666	0.000000
861.252930	0.000000
861.286316	0.000000
861.319641	0.000000
861.352905	0.000000
861.386230	0.000000
861.419495	0.000000
861.452820	0.000000
861.486145	0.000000
861.519470	0.000000
861.552734	0.000000
861.586060	0.000000
861.619324	0.000000
861.652649	0.000000
861.685974	0.000000
861.719238	0.000000
861.752563	0.000000
861.785828	0.000000
861.819092	0.000000
861.852417	0.000000
861.885742	0.000000
861.918945	0.000000
861.952271	0.000000
861.985535	0.000000
862.018799	0.000000
862.052124	0.000000
862.085449	0.000000
862.118652	0.000000
862.151978	0.000000
862.185181	0.000000
862.218506	0.000000
862.251770	0.000000
862.285034	0.000000
862.318298	0.000000
862.351562	0.000000
862.384827	0.000000
862.418091	0.000000
862.451355	0.000000
862.484619	0.000000
862.517883	0.000000
862.551086	0.000000
862.584351	0.000000
862.617676	0.000000
862.650940	0.000000
862.684143	0.000000
862.717407	0.000000
862.750610	0.000000
862.783875	0.000000
862.817139	0.000000
862.850342	0.000000
862.883606	0.000000
862.916870	0.000000
862.950073	0.000000
862.983337	0.000000
863.016602	0.000000
863.049805	0.000000
863.083069	0.000000
863.116211	0.000000
863.149475	0.000000
863.182739	0.000000
863.216003	0.000000
863.249146	0.000000
863.282410	0.000000
863.315613	0.000000
863.348816	0.000000
863.382080	0.000000
863.415222	0.000000
863.448486	0.000000
863.481689	0.000000
863.514893	0.000000
863.548157	0.000000
863.581360	0.000000
863.614502	0.000000
863.647766	0.000000
863.680908	0.000000
863.714172	0.000000
863.747375	0.000000
863.780579	0.000000
863.813721	0.000000
863.846985	0.000000
863.880127	0.000000
863.913330	0.000000
863.946533	0.000000
863.979675	0.000000
864.012939	0.000000
