Model Number: SPM-001-M   
Serial Number: 10090201
Firmware Version: 004.17.6
Exposure Time: 500000.000000us
Data Taken on: 17-08-2020 11:00:47.705
Wavelength	Amplitude
733.770752	0.000000
733.808716	0.000000
733.846619	0.000000
733.884583	0.000000
733.922546	0.000000
733.960449	0.000000
733.998413	0.000000
734.036377	0.000000
734.074219	0.000000
734.112183	0.000000
734.150085	0.000000
734.188049	0.000000
734.226013	0.000000
734.263916	0.000000
734.301819	0.000000
734.339783	0.000000
734.377686	0.000000
734.415588	0.000000
734.453552	0.000000
734.491455	0.000000
734.529419	0.000000
734.567322	0.000000
734.605225	0.000000
734.643127	0.000000
734.681091	0.000000
734.718994	0.000000
734.756897	0.000000
734.794800	0.000000
734.832703	0.000000
734.870667	0.000000
734.908508	0.000000
734.946472	0.000000
734.984375	0.000000
735.022278	0.000000
735.060181	0.000000
735.098083	0.000000
735.135986	0.000000
735.173889	0.000000
735.211792	0.000000
735.249695	0.000000
735.287598	0.000000
735.325439	0.000000
735.363403	0.000000
735.401306	0.000000
735.439148	0.000000
735.477051	0.000000
735.515015	0.000000
735.552856	0.000000
735.590759	0.000000
735.628662	0.000000
735.666504	0.000000
735.704407	0.000000
735.742310	0.000000
735.780212	0.000000
735.818115	0.000000
735.856018	0.000000
735.893860	0.000000
735.931763	0.000000
735.969604	0.000000
736.007507	0.000000
736.045410	0.000000
736.083252	0.000000
736.121094	0.000000
736.158997	0.000000
736.196838	0.000000
736.234741	0.000000
736.272644	0.000000
736.310486	0.000000
736.348389	0.000000
736.386230	0.000000
736.424072	0.000000
736.461975	0.000000
736.499878	0.000000
736.537720	0.000000
736.575562	0.000000
736.613403	0.000000
736.651306	0.000000
736.689148	0.000000
736.726990	0.000000
736.764893	0.000000
736.802734	0.000000
736.840576	0.000000
736.878418	0.000000
736.916321	0.000000
736.954102	0.000000
736.992004	0.000000
737.029846	0.000000
737.067688	0.000000
737.105530	0.000000
737.143372	0.000000
737.181213	0.000000
737.219116	0.000000
737.256897	0.000000
737.294739	0.000000
737.332642	0.000000
737.370422	0.000000
737.408325	0.000000
737.446167	0.000000
737.483948	0.000000
737.521790	0.000000
737.559692	0.000000
737.597473	0.000000
737.635315	0.000000
737.673157	0.000000
737.710999	0.000000
737.748840	0.000000
737.786621	0.000000
737.824463	0.000000
737.862305	0.000000
737.900085	0.000000
737.937927	0.000000
737.975769	0.000000
738.013550	0.000000
738.051392	0.000000
738.089233	0.000000
738.127014	0.000000
738.164856	0.000000
738.202698	0.000000
738.240479	0.000000
738.278320	0.000000
738.316162	0.000000
738.353943	0.000000
738.391785	0.000000
738.429565	0.000000
738.467407	0.000000
738.505188	0.000000
738.542969	0.000000
738.580811	0.000000
738.618652	0.000000
738.656372	0.000000
738.694214	0.000000
738.732056	0.000000
738.769836	0.000000
738.807617	0.000000
738.845459	0.000000
738.883240	0.000000
738.921021	0.000000
738.958862	0.000000
738.996582	0.000000
739.034424	0.000000
739.072205	0.000000
739.109985	0.000000
739.147827	0.000000
739.185547	0.000000
739.223389	0.000000
739.261169	0.000000
739.298889	0.000000
739.336731	0.000000
739.374512	0.000000
739.412292	0.000000
739.450073	0.000000
739.487854	0.000000
739.525635	0.000000
739.563416	0.000000
739.601135	0.000000
739.638977	0.000000
739.676758	0.000000
739.714478	0.000000
739.752258	0.000000
739.790100	0.000000
739.827820	0.000000
739.865601	0.000000
739.903381	0.000000
739.941101	0.000000
739.978882	202.000000
740.016724	198.000000
740.054443	201.000000
740.092224	199.000000
740.130005	196.000000
740.167725	199.000000
740.205505	202.000000
740.243225	204.000000
740.281006	204.000000
740.318787	191.000000
740.356506	208.000000
740.394287	205.000000
740.432068	198.000000
740.469727	189.000000
740.507507	201.000000
740.545288	199.000000
740.583008	203.000000
740.620789	198.000000
740.658569	189.000000
740.696228	202.000000
740.734009	206.000000
740.771790	187.000000
740.809509	206.000000
740.847229	196.000000
740.884949	201.000000
740.922729	195.000000
740.960449	199.000000
740.998169	193.000000
741.035950	200.000000
741.073669	200.000000
741.111389	205.000000
741.149170	212.000000
741.186890	210.000000
741.224609	204.000000
741.262329	200.000000
741.300110	210.000000
741.337769	194.000000
741.375549	195.000000
741.413208	199.000000
741.450989	196.000000
741.488708	198.000000
741.526367	198.000000
741.564148	203.000000
741.601868	209.000000
741.639526	196.000000
741.677307	203.000000
741.715027	201.000000
741.752686	194.000000
741.790466	209.000000
741.828186	205.000000
741.865845	192.000000
741.903564	194.000000
741.941345	199.000000
741.979004	193.000000
742.016724	201.000000
742.054382	202.000000
742.092102	201.000000
742.129822	193.000000
742.167480	194.000000
742.205200	199.000000
742.242920	203.000000
742.280640	205.000000
742.318359	194.000000
742.356079	198.000000
742.393738	201.000000
742.431396	197.000000
742.469116	202.000000
742.506775	187.000000
742.544495	201.000000
742.582214	205.000000
742.619873	200.000000
742.657593	207.000000
742.695251	205.000000
742.732971	205.000000
742.770630	198.000000
742.808289	203.000000
742.846008	201.000000
742.883728	201.000000
742.921326	201.000000
742.959045	197.000000
742.996765	198.000000
743.034424	199.000000
743.072083	199.000000
743.109802	199.000000
743.147400	196.000000
743.185120	203.000000
743.222839	199.000000
743.260437	205.000000
743.298157	202.000000
743.335754	189.000000
743.373474	200.000000
743.411133	191.000000
743.448792	200.000000
743.486450	199.000000
743.524170	190.000000
743.561768	195.000000
743.599487	209.000000
743.637146	214.000000
743.674744	196.000000
743.712463	195.000000
743.750122	203.000000
743.787720	199.000000
743.825439	196.000000
743.863037	198.000000
743.900696	195.000000
743.938416	224.000000
743.976013	200.000000
744.013672	207.000000
744.051331	206.000000
744.088928	211.000000
744.126587	207.000000
744.164307	199.000000
744.201904	200.000000
744.239563	202.000000
744.277222	205.000000
744.314819	202.000000
744.352478	204.000000
744.390137	202.000000
744.427734	203.000000
744.465393	198.000000
744.502991	195.000000
744.540649	202.000000
744.578308	202.000000
744.615906	194.000000
744.653564	188.000000
744.691223	202.000000
744.728821	192.000000
744.766418	195.000000
744.804077	202.000000
744.841675	201.000000
744.879333	190.000000
744.916992	197.000000
744.954529	197.000000
744.992187	212.000000
745.029785	194.000000
745.067444	201.000000
745.105042	201.000000
745.142639	202.000000
745.180298	206.000000
745.217896	200.000000
745.255493	196.000000
745.293152	211.000000
745.330750	205.000000
745.368347	205.000000
745.405945	205.000000
745.443604	202.000000
745.481140	203.000000
745.518799	197.000000
745.556396	206.000000
745.593994	204.000000
745.631592	199.000000
745.669189	197.000000
745.706787	200.000000
745.744385	198.000000
745.781982	200.000000
745.819580	194.000000
745.857178	200.000000
745.894775	200.000000
745.932373	196.000000
745.969971	209.000000
746.007568	192.000000
746.045166	211.000000
746.082764	205.000000
746.120300	202.000000
746.157898	201.000000
746.195557	201.000000
746.233093	196.000000
746.270691	202.000000
746.308228	203.000000
746.345825	204.000000
746.383423	204.000000
746.420959	195.000000
746.458557	199.000000
746.496155	195.000000
746.533691	196.000000
746.571289	191.000000
746.608887	203.000000
746.646423	200.000000
746.684021	203.000000
746.721619	197.000000
746.759155	205.000000
746.796753	190.000000
746.834351	195.000000
746.871826	192.000000
746.909424	207.000000
746.946960	198.000000
746.984558	201.000000
747.022156	195.000000
747.059631	207.000000
747.097229	199.000000
747.134827	199.000000
747.172363	207.000000
747.209900	206.000000
747.247498	195.000000
747.285034	209.000000
747.322571	209.000000
747.360168	202.000000
747.397644	190.000000
747.435242	205.000000
747.472778	207.000000
747.510315	198.000000
747.547913	198.000000
747.585388	208.000000
747.622925	198.000000
747.660522	194.000000
747.697998	201.000000
747.735596	199.000000
747.773132	200.000000
747.810669	199.000000
747.848206	203.000000
747.885742	197.000000
747.923279	195.000000
747.960815	200.000000
747.998352	205.000000
748.035889	204.000000
748.073425	205.000000
748.110901	193.000000
748.148437	197.000000
748.185974	195.000000
748.223511	215.000000
748.261047	201.000000
748.298584	204.000000
748.336060	203.000000
748.373596	206.000000
748.411133	216.000000
748.448608	201.000000
748.486145	202.000000
748.523682	206.000000
748.561218	205.000000
748.598755	205.000000
748.636292	202.000000
748.673706	205.000000
748.711243	206.000000
748.748718	203.000000
748.786255	199.000000
748.823792	203.000000
748.861267	188.000000
748.898804	202.000000
748.936340	205.000000
748.973816	197.000000
749.011292	206.000000
749.048828	208.000000
749.086304	204.000000
749.123840	217.000000
749.161316	197.000000
749.198792	209.000000
749.236328	207.000000
749.273743	204.000000
749.311279	198.000000
749.348816	204.000000
749.386230	205.000000
749.423767	184.000000
749.461304	204.000000
749.498718	201.000000
749.536255	210.000000
749.573730	217.000000
749.611206	207.000000
749.648682	200.000000
749.686218	201.000000
749.723633	206.000000
749.761169	205.000000
749.798645	194.000000
749.836060	201.000000
749.873596	196.000000
749.911011	199.000000
749.948547	204.000000
749.986023	204.000000
750.023437	195.000000
750.060913	196.000000
750.098450	191.000000
750.135864	200.000000
750.173340	201.000000
750.210815	204.000000
750.248291	193.000000
750.285767	203.000000
750.323242	208.000000
750.360657	203.000000
750.398132	196.000000
750.435608	207.000000
750.473022	192.000000
750.510498	194.000000
750.547974	193.000000
750.585449	200.000000
750.622925	189.000000
750.660339	209.000000
750.697815	201.000000
750.735291	201.000000
750.772644	206.000000
750.810120	205.000000
750.847595	207.000000
750.885010	197.000000
750.922485	209.000000
750.959961	201.000000
750.997375	212.000000
751.034851	208.000000
751.072266	211.000000
751.109680	191.000000
751.147156	209.000000
751.184570	206.000000
751.221985	201.000000
751.259460	193.000000
751.296875	203.000000
751.334290	200.000000
751.371765	210.000000
751.409180	203.000000
751.446594	207.000000
751.484070	199.000000
751.521423	204.000000
751.558899	198.000000
751.596375	208.000000
751.633728	204.000000
751.671204	216.000000
751.708618	191.000000
751.746033	201.000000
751.783447	191.000000
751.820801	197.000000
751.858276	201.000000
751.895691	200.000000
751.933105	199.000000
751.970520	198.000000
752.007935	199.000000
752.045349	204.000000
752.082764	201.000000
752.120178	197.000000
752.157532	193.000000
752.195007	199.000000
752.232422	204.000000
752.269775	211.000000
752.307190	205.000000
752.344543	197.000000
752.382019	202.000000
752.419434	200.000000
752.456787	204.000000
752.494202	207.000000
752.531616	207.000000
752.568970	209.000000
752.606384	206.000000
752.643799	202.000000
752.681152	211.000000
752.718567	204.000000
752.755981	198.000000
752.793335	200.000000
752.830750	194.000000
752.868164	209.000000
752.905518	196.000000
752.942932	200.000000
752.980225	197.000000
753.017639	202.000000
753.055054	207.000000
753.092407	202.000000
753.129822	208.000000
753.167175	210.000000
753.204529	197.000000
753.241943	193.000000
753.279358	195.000000
753.316650	205.000000
753.354065	202.000000
753.391479	203.000000
753.428772	211.000000
753.466187	202.000000
753.503479	193.000000
753.540894	200.000000
753.578308	195.000000
753.615601	190.000000
753.653015	200.000000
753.690369	196.000000
753.727722	199.000000
753.765076	197.000000
753.802490	197.000000
753.839783	194.000000
753.877136	201.000000
753.914551	216.000000
753.951843	203.000000
753.989258	212.000000
754.026611	203.000000
754.063904	207.000000
754.101257	198.000000
754.138611	190.000000
754.175964	202.000000
754.213318	214.000000
754.250610	197.000000
754.288025	199.000000
754.325378	196.000000
754.362671	208.000000
754.400024	197.000000
754.437378	211.000000
754.474670	207.000000
754.512085	201.000000
754.549438	200.000000
754.586731	196.000000
754.624084	200.000000
754.661438	194.000000
754.698730	205.000000
754.736084	201.000000
754.773376	198.000000
754.810730	205.000000
754.848083	197.000000
754.885315	203.000000
754.922668	190.000000
754.960022	199.000000
754.997314	205.000000
755.034668	200.000000
755.072021	202.000000
755.109253	199.000000
755.146606	209.000000
755.183960	201.000000
755.221252	212.000000
755.258545	205.000000
755.295898	211.000000
755.333191	215.000000
755.370544	204.000000
755.407776	206.000000
755.445129	205.000000
755.482422	210.000000
755.519714	199.000000
755.557068	197.000000
755.594360	194.000000
755.631653	213.000000
755.668945	213.000000
755.706299	205.000000
755.743530	219.000000
755.780884	213.000000
755.818176	211.000000
755.855408	209.000000
755.892761	204.000000
755.930054	207.000000
755.967346	208.000000
756.004639	208.000000
756.041870	208.000000
756.079224	212.000000
756.116516	203.000000
756.153748	210.000000
756.191040	221.000000
756.228394	206.000000
756.265625	205.000000
756.302917	210.000000
756.340210	204.000000
756.377441	211.000000
756.414795	218.000000
756.452087	205.000000
756.489319	199.000000
756.526611	209.000000
756.563843	210.000000
756.601135	215.000000
756.638428	221.000000
756.675659	209.000000
756.712952	212.000000
756.750244	212.000000
756.787476	212.000000
756.824768	210.000000
756.862061	208.000000
756.899292	257.000000
756.936584	213.000000
756.973816	220.000000
757.011047	225.000000
757.048340	210.000000
757.085632	211.000000
757.122864	231.000000
757.160156	208.000000
757.197327	218.000000
757.234619	211.000000
757.271912	209.000000
757.309082	219.000000
757.346375	213.000000
757.383667	218.000000
757.420837	215.000000
757.458130	210.000000
757.495422	211.000000
757.532593	212.000000
757.569885	209.000000
757.607117	205.000000
757.644348	218.000000
757.681580	222.000000
757.718811	199.000000
757.756042	207.000000
757.793335	213.000000
757.830505	211.000000
757.867798	211.000000
757.905029	207.000000
757.942200	215.000000
757.979492	206.000000
758.016724	215.000000
758.053894	209.000000
758.091187	236.000000
758.128418	217.000000
758.165588	214.000000
758.202820	228.000000
758.240112	220.000000
758.277283	225.000000
758.314514	220.000000
758.351685	212.000000
758.388916	225.000000
758.426147	220.000000
758.463379	225.000000
758.500610	222.000000
758.537842	219.000000
758.575012	226.000000
758.612244	216.000000
758.649475	232.000000
758.686646	213.000000
758.723877	228.000000
758.761108	227.000000
758.798279	221.000000
758.835510	220.000000
758.872742	228.000000
758.909851	220.000000
758.947083	225.000000
758.984253	224.000000
759.021484	226.000000
759.058716	226.000000
759.095886	227.000000
759.133057	222.000000
759.170288	225.000000
759.207458	226.000000
759.244690	233.000000
759.281860	234.000000
759.319031	227.000000
759.356262	222.000000
759.393433	224.000000
759.430603	221.000000
759.467773	227.000000
759.505005	227.000000
759.542175	231.000000
759.579346	222.000000
759.616516	225.000000
759.653687	225.000000
759.690918	224.000000
759.728027	227.000000
759.765259	229.000000
759.802429	227.000000
759.839539	227.000000
759.876770	232.000000
759.913940	237.000000
759.951111	229.000000
759.988281	228.000000
760.025452	227.000000
760.062561	225.000000
760.099792	237.000000
760.136963	231.000000
760.174072	220.000000
760.211243	224.000000
760.248413	223.000000
760.285583	223.000000
760.322754	241.000000
760.359863	234.000000
760.397034	236.000000
760.434204	233.000000
760.471375	233.000000
760.508545	230.000000
760.545715	229.000000
760.582825	225.000000
760.619995	235.000000
760.657166	222.000000
760.694275	237.000000
760.731445	232.000000
760.768555	237.000000
760.805664	235.000000
760.842834	239.000000
760.879944	236.000000
760.917114	235.000000
760.954285	231.000000
760.991394	226.000000
761.028564	237.000000
761.065674	239.000000
761.102783	232.000000
761.139954	240.000000
761.177124	239.000000
761.214172	247.000000
761.251343	238.000000
761.288452	237.000000
761.325562	243.000000
761.362732	235.000000
761.399841	235.000000
761.436951	243.000000
761.474121	235.000000
761.511169	244.000000
761.548340	249.000000
761.585449	250.000000
761.622559	247.000000
761.659668	244.000000
761.696838	257.000000
761.733887	249.000000
761.771057	242.000000
761.808167	248.000000
761.845276	251.000000
761.882385	262.000000
761.919434	253.000000
761.956604	267.000000
761.993713	249.000000
762.030762	261.000000
762.067871	254.000000
762.105042	251.000000
762.142090	265.000000
762.179199	252.000000
762.216309	256.000000
762.253418	269.000000
762.290527	261.000000
762.327637	262.000000
762.364685	249.000000
762.401794	257.000000
762.438904	262.000000
762.475952	255.000000
762.513062	252.000000
762.550110	253.000000
762.587219	264.000000
762.624329	260.000000
762.661377	264.000000
762.698486	261.000000
762.735596	267.000000
762.772644	255.000000
762.809753	253.000000
762.846863	255.000000
762.883911	265.000000
762.921021	265.000000
762.958069	259.000000
762.995117	269.000000
763.032227	272.000000
763.069336	255.000000
763.106323	262.000000
763.143433	264.000000
763.180481	273.000000
763.217590	268.000000
763.254639	263.000000
763.291687	266.000000
763.328735	277.000000
763.365845	270.000000
763.402893	263.000000
763.439941	271.000000
763.477051	274.000000
763.514038	277.000000
763.551147	275.000000
763.588196	282.000000
763.625244	272.000000
763.662292	278.000000
763.699402	280.000000
763.736389	272.000000
763.773499	284.000000
763.810486	278.000000
763.847534	276.000000
763.884644	281.000000
763.921631	277.000000
763.958679	296.000000
763.995728	274.000000
764.032776	294.000000
764.069824	273.000000
764.106873	285.000000
764.143860	290.000000
764.180969	281.000000
764.218018	288.000000
764.255005	279.000000
764.292053	286.000000
764.329102	302.000000
764.366089	293.000000
764.403137	293.000000
764.440125	287.000000
764.477173	289.000000
764.514221	297.000000
764.551208	289.000000
764.588257	283.000000
764.625305	293.000000
764.662292	302.000000
764.699341	304.000000
764.736389	293.000000
764.773376	320.000000
764.810425	299.000000
764.847473	313.000000
764.884399	307.000000
764.921448	315.000000
764.958435	313.000000
764.995483	306.000000
765.032532	319.000000
765.069458	299.000000
765.106506	297.000000
765.143555	302.000000
765.180481	308.000000
765.217529	314.000000
765.254578	301.000000
765.291504	311.000000
765.328552	312.000000
765.365540	302.000000
765.402527	322.000000
765.439575	304.000000
765.476501	306.000000
765.513550	299.000000
765.550537	311.000000
765.587463	316.000000
765.624512	308.000000
765.661499	296.000000
765.698486	317.000000
765.735474	302.000000
765.772461	316.000000
765.809448	322.000000
765.846436	322.000000
765.883423	316.000000
765.920410	313.000000
765.957397	313.000000
765.994385	319.000000
766.031311	329.000000
766.068359	320.000000
766.105286	319.000000
766.142273	329.000000
766.179260	319.000000
766.216187	317.000000
766.253174	320.000000
766.290161	328.000000
766.327148	328.000000
766.364136	329.000000
766.401123	351.000000
766.438049	320.000000
766.475037	339.000000
766.512024	334.000000
766.548950	352.000000
766.585937	349.000000
766.622864	340.000000
766.659790	346.000000
766.696777	333.000000
766.733704	348.000000
766.770691	344.000000
766.807678	355.000000
766.844604	349.000000
766.881531	351.000000
766.918518	355.000000
766.955444	353.000000
766.992432	357.000000
767.029358	354.000000
767.066284	367.000000
767.103271	355.000000
767.140198	384.000000
767.177124	367.000000
767.214050	364.000000
767.251038	362.000000
767.287964	367.000000
767.324890	357.000000
767.361816	359.000000
767.398743	372.000000
767.435730	370.000000
767.472595	378.000000
767.509583	381.000000
767.546509	364.000000
767.583374	379.000000
767.620361	364.000000
767.657288	376.000000
767.694214	377.000000
767.731140	371.000000
767.768066	384.000000
767.804993	385.000000
767.841919	369.000000
767.878845	378.000000
767.915710	385.000000
767.952698	384.000000
767.989563	384.000000
768.026489	391.000000
768.063416	379.000000
768.100281	376.000000
768.137207	391.000000
768.174133	389.000000
768.211060	383.000000
768.247986	384.000000
768.284912	372.000000
768.321777	362.000000
768.358704	352.000000
768.395630	346.000000
768.432495	337.000000
768.469421	327.000000
768.506348	327.000000
768.543152	318.000000
768.580078	303.000000
768.616943	297.000000
768.653870	289.000000
768.690796	281.000000
768.727661	271.000000
768.764587	259.000000
768.801453	251.000000
768.838318	249.000000
768.875244	243.000000
768.912109	245.000000
768.948975	231.000000
768.985901	228.000000
769.022766	228.000000
769.059631	228.000000
769.096558	219.000000
769.133362	219.000000
769.170288	220.000000
769.207214	219.000000
769.244019	221.000000
769.280945	216.000000
769.317810	228.000000
769.354675	214.000000
769.391541	225.000000
769.428406	220.000000
769.465271	228.000000
769.502136	206.000000
769.539062	215.000000
769.575867	213.000000
769.612732	211.000000
769.649597	213.000000
769.686462	213.000000
769.723328	209.000000
769.760193	204.000000
769.797058	205.000000
769.833923	215.000000
769.870728	210.000000
769.907593	207.000000
769.944519	202.000000
769.981323	208.000000
770.018188	209.000000
770.055054	200.000000
770.091858	205.000000
770.128723	214.000000
770.165588	216.000000
770.202393	197.000000
770.239258	206.000000
770.276062	200.000000
770.312927	204.000000
770.349792	208.000000
770.386597	204.000000
770.423462	205.000000
770.460327	222.000000
770.497131	200.000000
770.533997	198.000000
770.570862	212.000000
770.607605	213.000000
770.644470	207.000000
770.681335	212.000000
770.718140	207.000000
770.754944	206.000000
770.791809	203.000000
770.828613	203.000000
770.865479	205.000000
770.902222	220.000000
770.939087	211.000000
770.975952	204.000000
771.012695	209.000000
771.049561	222.000000
771.086365	211.000000
771.123169	214.000000
771.159973	208.000000
771.196838	214.000000
771.233582	220.000000
771.270447	216.000000
771.307251	221.000000
771.344055	212.000000
771.380859	219.000000
771.417664	209.000000
771.454468	224.000000
771.491272	216.000000
771.528076	219.000000
771.564880	214.000000
771.601685	224.000000
771.638428	214.000000
771.675293	225.000000
771.712097	204.000000
771.748840	232.000000
771.785645	211.000000
771.822449	217.000000
771.859253	215.000000
771.896057	216.000000
771.932861	222.000000
771.969604	217.000000
772.006409	209.000000
772.043213	221.000000
772.079956	214.000000
772.116760	210.000000
772.153503	220.000000
772.190308	233.000000
772.227112	226.000000
772.263855	220.000000
772.300659	223.000000
772.337463	241.000000
772.374207	227.000000
772.411011	225.000000
772.447754	231.000000
772.484497	246.000000
772.521301	229.000000
772.558105	228.000000
772.594849	232.000000
772.631592	239.000000
772.668396	235.000000
772.705139	236.000000
772.741882	233.000000
772.778625	242.000000
772.815430	243.000000
772.852173	237.000000
772.888916	243.000000
772.925720	242.000000
772.962463	249.000000
772.999207	237.000000
773.035950	248.000000
773.072754	250.000000
773.109436	250.000000
773.146240	250.000000
773.182922	246.000000
773.219727	256.000000
773.256470	247.000000
773.293152	235.000000
773.329956	248.000000
773.366699	250.000000
773.403381	244.000000
773.440186	244.000000
773.476929	244.000000
773.513611	243.000000
773.550354	248.000000
773.587158	243.000000
773.623840	240.000000
773.660583	240.000000
773.697327	255.000000
773.734009	249.000000
773.770813	255.000000
773.807495	248.000000
773.844238	253.000000
773.880981	267.000000
773.917664	259.000000
773.954407	264.000000
773.991150	262.000000
774.027832	266.000000
774.064575	257.000000
774.101318	263.000000
774.138000	267.000000
774.174744	264.000000
774.211487	275.000000
774.248108	266.000000
774.284851	274.000000
774.321594	290.000000
774.358276	299.000000
774.395020	330.000000
774.431702	334.000000
774.468384	349.000000
774.505127	366.000000
774.541809	400.000000
774.578491	421.000000
774.615234	457.000000
774.651917	469.000000
774.688599	510.000000
774.725342	538.000000
774.762024	538.000000
774.798706	562.000000
774.835449	581.000000
774.872070	613.000000
774.908813	641.000000
774.945496	646.000000
774.982178	660.000000
775.018860	660.000000
775.055542	676.000000
775.092224	704.000000
775.128967	724.000000
775.165588	735.000000
775.202271	721.000000
775.239014	730.000000
775.275635	725.000000
775.312317	733.000000
775.349060	746.000000
775.385681	762.000000
775.422363	753.000000
775.459045	749.000000
775.495667	753.000000
775.532410	752.000000
775.569092	769.000000
775.605713	786.000000
775.642395	787.000000
775.679016	770.000000
775.715698	758.000000
775.752380	768.000000
775.789001	762.000000
775.825684	782.000000
775.862366	793.000000
775.898987	796.000000
775.935669	770.000000
775.972351	780.000000
776.008972	780.000000
776.045654	796.000000
776.082336	791.000000
776.118958	795.000000
776.155640	785.000000
776.192322	782.000000
776.228882	786.000000
776.265564	807.000000
776.302185	803.000000
776.338867	818.000000
776.375488	799.000000
776.412109	798.000000
776.448792	798.000000
776.485413	818.000000
776.522034	818.000000
776.558716	808.000000
776.595337	812.000000
776.631958	821.000000
776.668579	795.000000
776.705261	805.000000
776.741882	813.000000
776.778503	809.000000
776.815186	799.000000
776.851746	816.000000
776.888367	804.000000
776.924988	814.000000
776.961609	803.000000
776.998291	810.000000
777.034851	809.000000
777.071472	825.000000
777.108154	810.000000
777.144714	815.000000
777.181335	837.000000
777.218018	817.000000
777.254578	846.000000
777.291199	851.000000
777.327759	845.000000
777.364380	853.000000
777.401062	870.000000
777.437622	885.000000
777.474243	889.000000
777.510864	892.000000
777.547424	879.000000
777.584045	878.000000
777.620667	881.000000
777.657227	897.000000
777.693848	896.000000
777.730469	912.000000
777.767029	897.000000
777.803650	908.000000
777.840271	886.000000
777.876831	883.000000
777.913452	914.000000
777.950012	877.000000
777.986633	894.000000
778.023193	885.000000
778.059753	876.000000
778.096375	875.000000
778.132996	908.000000
778.169556	892.000000
778.206116	898.000000
778.242737	897.000000
778.279297	917.000000
778.315857	898.000000
778.352478	910.000000
778.389038	917.000000
778.425598	923.000000
778.462219	934.000000
778.498718	926.000000
778.535339	943.000000
778.571838	931.000000
778.608459	947.000000
778.645020	923.000000
778.681580	941.000000
778.718140	927.000000
778.754761	924.000000
778.791260	935.000000
778.827881	953.000000
778.864441	944.000000
778.900940	961.000000
778.937561	960.000000
778.974121	952.000000
779.010620	953.000000
779.047241	956.000000
779.083801	978.000000
779.120300	986.000000
779.156860	1004.000000
779.193359	1010.000000
779.229980	1008.000000
779.266541	1022.000000
779.303040	1022.000000
779.339600	1015.000000
779.376160	1022.000000
779.412659	1029.000000
779.449219	1008.000000
779.485779	1016.000000
779.522278	1014.000000
779.558838	1022.000000
779.595398	1017.000000
779.631897	1035.000000
779.668457	1027.000000
779.705017	1045.000000
779.741516	1002.000000
779.778076	1000.000000
779.814575	1011.000000
779.851074	1028.000000
779.887634	1013.000000
779.924133	1039.000000
779.960693	1018.000000
779.997253	1020.000000
780.033691	1027.000000
780.070251	1037.000000
780.106812	1061.000000
780.143250	1069.000000
780.179810	1043.000000
780.216370	1045.000000
780.252808	1044.000000
780.289368	1059.000000
780.325867	1091.000000
780.362366	1091.000000
780.398865	1093.000000
780.435364	1079.000000
780.471863	1093.000000
780.508423	1075.000000
780.544861	1093.000000
780.581421	1104.000000
780.617920	1093.000000
780.654419	1101.000000
780.690918	1111.000000
780.727417	1100.000000
780.763916	1101.000000
780.800415	1120.000000
780.836914	1133.000000
780.873352	1148.000000
780.909912	1139.000000
780.946411	1119.000000
780.982849	1132.000000
781.019348	1141.000000
781.055786	1122.000000
781.092346	1139.000000
781.128845	1144.000000
781.165283	1126.000000
781.201782	1142.000000
781.238281	1127.000000
781.274719	1139.000000
781.311218	1145.000000
781.347717	1169.000000
781.384155	1151.000000
781.420654	1150.000000
781.457092	1161.000000
781.493591	1145.000000
781.530090	1166.000000
781.566528	1179.000000
781.602966	1162.000000
781.639465	1163.000000
781.675903	1153.000000
781.712402	1151.000000
781.748901	1137.000000
781.785278	1146.000000
781.821777	1137.000000
781.858276	1132.000000
781.894714	1144.000000
781.931152	1139.000000
781.967651	1141.000000
782.004089	1131.000000
782.040527	1135.000000
782.076965	1144.000000
782.113403	1134.000000
782.149902	1126.000000
782.186340	1135.000000
782.222778	1156.000000
782.259277	1152.000000
782.295654	1140.000000
782.332092	1160.000000
782.368591	1153.000000
782.404968	1162.000000
782.441467	1182.000000
782.477905	1188.000000
782.514282	1176.000000
782.550781	1189.000000
782.587219	1184.000000
782.623596	1209.000000
782.660095	1224.000000
782.696472	1217.000000
782.732910	1223.000000
782.769348	1209.000000
782.805786	1216.000000
782.842224	1214.000000
782.878662	1224.000000
782.915039	1245.000000
782.951477	1251.000000
782.987915	1254.000000
783.024292	1252.000000
783.060730	1247.000000
783.097168	1257.000000
783.133545	1236.000000
783.169983	1235.000000
783.206421	1209.000000
783.242798	1205.000000
783.279236	1205.000000
783.315613	1200.000000
783.352051	1206.000000
783.388489	1197.000000
783.424866	1201.000000
783.461304	1204.000000
783.497681	1221.000000
783.534058	1217.000000
783.570496	1216.000000
783.606934	1231.000000
783.643250	1216.000000
783.679687	1227.000000
783.716125	1210.000000
783.752441	1235.000000
783.788879	1242.000000
783.825317	1259.000000
783.861633	1270.000000
783.898071	1281.000000
783.934448	1288.000000
783.970825	1306.000000
784.007263	1296.000000
784.043579	1318.000000
784.080017	1336.000000
784.116394	1309.000000
784.152710	1319.000000
784.189148	1316.000000
784.225525	1298.000000
784.261902	1304.000000
784.298279	1284.000000
784.334656	1276.000000
784.371033	1253.000000
784.407410	1241.000000
784.443787	1232.000000
784.480164	1251.000000
784.516541	1231.000000
784.552856	1241.000000
784.589233	1220.000000
784.625610	1221.000000
784.661987	1243.000000
784.698364	1269.000000
784.734741	1271.000000
784.771057	1255.000000
784.807434	1272.000000
784.843811	1267.000000
784.880127	1254.000000
784.916504	1303.000000
784.952881	1341.000000
784.989197	1354.000000
785.025574	1363.000000
785.061951	1364.000000
785.098267	1387.000000
785.134644	1398.000000
785.170959	1409.000000
785.207275	1463.000000
785.243652	1452.000000
785.279968	1434.000000
785.316345	1413.000000
785.352722	1392.000000
785.388977	1405.000000
785.425354	1384.000000
785.461731	1381.000000
785.498047	1355.000000
785.534363	1297.000000
785.570679	1253.000000
785.606995	1250.000000
785.643372	1259.000000
785.679687	1285.000000
785.716003	1256.000000
785.752380	1232.000000
785.788635	1215.000000
785.825012	1229.000000
785.861328	1228.000000
785.897644	1265.000000
785.933960	1305.000000
785.970337	1317.000000
786.006592	1344.000000
786.042908	1365.000000
786.079285	1386.000000
786.115540	1437.000000
786.151855	1491.000000
786.188171	1521.000000
786.224487	1548.000000
786.260803	1539.000000
786.297119	1571.000000
786.333435	1559.000000
786.369751	1562.000000
786.406006	1584.000000
786.442322	1540.000000
786.478638	1493.000000
786.514954	1466.000000
786.551270	1425.000000
786.587585	1441.000000
786.623840	1395.000000
786.660156	1378.000000
786.696472	1328.000000
786.732727	1315.000000
786.769043	1303.000000
786.805298	1281.000000
786.841614	1279.000000
786.877930	1313.000000
786.914124	1309.000000
786.950439	1329.000000
786.986755	1341.000000
787.023010	1348.000000
787.059326	1346.000000
787.095642	1394.000000
787.131836	1446.000000
787.168152	1468.000000
787.204468	1467.000000
787.240723	1476.000000
787.276978	1486.000000
787.313293	1527.000000
787.349548	1542.000000
787.385803	1570.000000
787.422058	1554.000000
787.458313	1541.000000
787.494629	1512.000000
787.530823	1525.000000
787.567139	1507.000000
787.603455	1506.000000
787.639648	1486.000000
787.675903	1446.000000
787.712219	1431.000000
787.748413	1394.000000
787.784729	1395.000000
787.820984	1377.000000
787.857178	1378.000000
787.893494	1358.000000
787.929749	1368.000000
787.965942	1361.000000
788.002258	1356.000000
788.038452	1366.000000
788.074707	1379.000000
788.110962	1401.000000
788.147217	1391.000000
788.183472	1380.000000
788.219727	1374.000000
788.255920	1394.000000
788.292175	1416.000000
788.328430	1444.000000
788.364624	1446.000000
788.400879	1457.000000
788.437134	1458.000000
788.473328	1456.000000
788.509583	1447.000000
788.545837	1456.000000
788.582031	1465.000000
788.618286	1475.000000
788.654480	1466.000000
788.690735	1467.000000
788.726990	1484.000000
788.763184	1452.000000
788.799377	1487.000000
788.835632	1489.000000
788.871826	1511.000000
788.908081	1494.000000
788.944336	1484.000000
788.980469	1514.000000
789.016724	1484.000000
789.052979	1501.000000
789.089111	1495.000000
789.125366	1479.000000
789.161621	1483.000000
789.197754	1473.000000
789.234009	1464.000000
789.270142	1456.000000
789.306396	1445.000000
789.342590	1451.000000
789.378784	1435.000000
789.414978	1428.000000
789.451233	1402.000000
789.487366	1398.000000
789.523621	1435.000000
789.559814	1420.000000
789.595947	1449.000000
789.632202	1445.000000
789.668335	1415.000000
789.704529	1433.000000
789.740784	1464.000000
789.776917	1470.000000
789.813110	1476.000000
789.849304	1500.000000
789.885498	1495.000000
789.921692	1486.000000
789.957886	1493.000000
789.994019	1501.000000
790.030212	1518.000000
790.066406	1530.000000
790.102539	1511.000000
790.138733	1523.000000
790.174927	1501.000000
790.211060	1496.000000
790.247253	1494.000000
790.283386	1512.000000
790.319580	1502.000000
790.355774	1452.000000
790.391907	1343.000000
790.428101	1155.000000
790.464294	952.000000
790.500427	830.000000
790.536621	802.000000
790.572754	886.000000
790.608887	972.000000
790.645081	1048.000000
790.681274	1095.000000
790.717346	1146.000000
790.753540	1158.000000
790.789734	1198.000000
790.825867	1214.000000
790.862000	1213.000000
790.898132	1230.000000
790.934265	1252.000000
790.970459	1284.000000
791.006592	1316.000000
791.042725	1333.000000
791.078918	1329.000000
791.114990	1346.000000
791.151184	1334.000000
791.187317	1365.000000
791.223389	1389.000000
791.259583	1413.000000
791.295715	1417.000000
791.331848	1421.000000
791.367981	1405.000000
791.404114	1410.000000
791.440247	1436.000000
791.476379	1455.000000
791.512451	1461.000000
791.548584	1476.000000
791.584778	1459.000000
791.620850	1441.000000
791.656982	1442.000000
791.693115	1453.000000
791.729187	1462.000000
791.765381	1499.000000
791.801514	1504.000000
791.837585	1486.000000
791.873718	1471.000000
791.909851	1479.000000
791.945923	1499.000000
791.982056	1479.000000
792.018188	1517.000000
792.054260	1510.000000
792.090393	1494.000000
792.126465	1480.000000
792.162598	1495.000000
792.198669	1521.000000
792.234741	1510.000000
792.270874	1492.000000
792.307007	1479.000000
792.343079	1454.000000
792.379150	1446.000000
792.415283	1428.000000
792.451355	1469.000000
792.487488	1459.000000
792.523560	1468.000000
792.559631	1462.000000
792.595764	1420.000000
792.631836	1440.000000
792.667908	1450.000000
792.703979	1459.000000
792.740051	1469.000000
792.776184	1468.000000
792.812256	1453.000000
792.848328	1445.000000
792.884399	1448.000000
792.920471	1457.000000
792.956543	1479.000000
792.992615	1479.000000
793.028748	1476.000000
793.064758	1450.000000
793.100830	1454.000000
793.136963	1445.000000
793.172974	1452.000000
793.209045	1459.000000
793.245178	1499.000000
793.281189	1462.000000
793.317261	1462.000000
793.353271	1433.000000
793.389404	1442.000000
793.425476	1450.000000
793.461487	1452.000000
793.497559	1434.000000
793.533630	1423.000000
793.569641	1401.000000
793.605713	1393.000000
793.641785	1391.000000
793.677795	1417.000000
793.713867	1424.000000
793.749878	1435.000000
793.785950	1444.000000
793.822021	1445.000000
793.858032	1407.000000
793.894104	1424.000000
793.930176	1442.000000
793.966187	1449.000000
794.002258	1428.000000
794.038269	1447.000000
794.074280	1436.000000
794.110352	1456.000000
794.146423	1446.000000
794.182373	1455.000000
794.218445	1458.000000
794.254517	1449.000000
794.290466	1423.000000
794.326538	1409.000000
794.362549	1409.000000
794.398560	1412.000000
794.434631	1423.000000
794.470581	1402.000000
794.506653	1370.000000
794.542664	1361.000000
794.578674	1361.000000
794.614685	1340.000000
794.650757	1345.000000
794.686707	1365.000000
794.722778	1366.000000
794.758789	1354.000000
794.794739	1362.000000
794.830811	1376.000000
794.866821	1399.000000
794.902771	1387.000000
794.938843	1413.000000
794.974792	1427.000000
795.010803	1417.000000
795.046814	1403.000000
795.082825	1386.000000
795.118835	1396.000000
795.154846	1392.000000
795.190796	1409.000000
795.226807	1395.000000
795.262817	1407.000000
795.298767	1356.000000
795.334778	1376.000000
795.370850	1350.000000
795.406799	1365.000000
795.442810	1374.000000
795.478821	1345.000000
795.514709	1338.000000
795.550720	1329.000000
795.586670	1308.000000
795.622681	1326.000000
795.658691	1365.000000
795.694641	1360.000000
795.730652	1357.000000
795.766663	1363.000000
795.802551	1351.000000
795.838562	1361.000000
795.874573	1371.000000
795.910522	1407.000000
795.946472	1390.000000
795.982483	1403.000000
796.018433	1375.000000
796.054382	1349.000000
796.090393	1324.000000
796.126282	1362.000000
796.162292	1342.000000
796.198242	1334.000000
796.234192	1333.000000
796.270203	1316.000000
796.306091	1313.000000
796.342041	1330.000000
796.378052	1330.000000
796.413940	1326.000000
796.449951	1329.000000
796.485901	1330.000000
796.521790	1312.000000
796.557800	1317.000000
796.593689	1326.000000
796.629639	1333.000000
796.665649	1340.000000
796.701599	1349.000000
796.737488	1337.000000
796.773437	1345.000000
796.809387	1346.000000
796.845337	1355.000000
796.881287	1370.000000
796.917175	1377.000000
796.953125	1371.000000
796.989075	1362.000000
797.024963	1331.000000
797.060913	1315.000000
797.096863	1358.000000
797.132751	1343.000000
797.168701	1342.000000
797.204590	1326.000000
797.240540	1288.000000
797.276489	1286.000000
797.312439	1276.000000
797.348328	1304.000000
797.384277	1308.000000
797.420166	1305.000000
797.456055	1293.000000
797.492004	1282.000000
797.527893	1271.000000
797.563843	1271.000000
797.599731	1305.000000
797.635620	1314.000000
797.671570	1319.000000
797.707520	1301.000000
797.743347	1282.000000
797.779297	1286.000000
797.815125	1294.000000
797.851074	1313.000000
797.887024	1318.000000
797.922913	1313.000000
797.958801	1301.000000
797.994690	1261.000000
798.030579	1269.000000
798.066467	1297.000000
798.102356	1283.000000
798.138245	1286.000000
798.174133	1276.000000
798.210083	1259.000000
798.245911	1248.000000
798.281799	1253.000000
798.317749	1257.000000
798.353577	1266.000000
798.389465	1284.000000
798.425293	1263.000000
798.461243	1251.000000
798.497131	1248.000000
798.532959	1239.000000
798.568848	1274.000000
798.604736	1268.000000
798.640564	1265.000000
798.676453	1233.000000
798.712402	1230.000000
798.748230	1212.000000
798.784119	1214.000000
798.820007	1238.000000
798.855835	1269.000000
798.891724	1237.000000
798.927551	1225.000000
798.963379	1230.000000
798.999268	1217.000000
799.035095	1217.000000
799.070984	1219.000000
799.106873	1230.000000
799.142700	1218.000000
799.178528	1203.000000
799.214417	1203.000000
799.250244	1222.000000
799.286133	1229.000000
799.321960	1235.000000
799.357788	1223.000000
799.393677	1203.000000
799.429504	1211.000000
799.465332	1197.000000
799.501221	1210.000000
799.537048	1229.000000
799.572876	1226.000000
799.608704	1225.000000
799.644531	1213.000000
799.680359	1216.000000
799.716248	1207.000000
799.752014	1214.000000
799.787903	1215.000000
799.823730	1205.000000
799.859558	1199.000000
799.895386	1190.000000
799.931213	1168.000000
799.967041	1149.000000
800.002869	1178.000000
800.038696	1200.000000
800.074463	1174.000000
800.110352	1179.000000
800.146179	1146.000000
800.181946	1159.000000
800.217773	1163.000000
800.253540	1153.000000
800.289429	1160.000000
800.325256	1178.000000
800.361023	1156.000000
800.396851	1134.000000
800.432678	1136.000000
800.468445	1136.000000
800.504272	1145.000000
800.540100	1145.000000
800.575867	1150.000000
800.611694	1149.000000
800.647461	1121.000000
800.683289	1105.000000
800.719116	1121.000000
800.754883	1133.000000
800.790649	1110.000000
800.826477	1106.000000
800.862244	1108.000000
800.898071	1084.000000
800.933838	1078.000000
800.969604	1094.000000
801.005432	1084.000000
801.041199	1099.000000
801.076965	1077.000000
801.112793	1051.000000
801.148560	1059.000000
801.184326	1055.000000
801.220154	1062.000000
801.255859	1053.000000
801.291687	1059.000000
801.327454	1049.000000
801.363281	1042.000000
801.398987	1016.000000
801.434814	1010.000000
801.470520	1031.000000
801.506287	1030.000000
801.542114	1018.000000
801.577820	1015.000000
801.613647	994.000000
801.649414	1002.000000
801.685120	1004.000000
801.720886	1017.000000
801.756714	1009.000000
801.792419	990.000000
801.828186	992.000000
801.863892	977.000000
801.899719	977.000000
801.935486	1000.000000
801.971252	1004.000000
802.006958	1001.000000
802.042725	1001.000000
802.078430	991.000000
802.114197	968.000000
802.149963	990.000000
802.185669	987.000000
802.221436	994.000000
802.257202	991.000000
802.292908	975.000000
802.328674	972.000000
802.364441	966.000000
802.400146	966.000000
802.435913	977.000000
802.471558	962.000000
802.507324	962.000000
802.543091	965.000000
802.578796	971.000000
802.614502	969.000000
802.650269	981.000000
802.685974	976.000000
802.721741	989.000000
802.757446	988.000000
802.793152	977.000000
802.828918	965.000000
802.864624	975.000000
802.900330	983.000000
802.936035	977.000000
802.971802	962.000000
803.007446	951.000000
803.043213	933.000000
803.078857	944.000000
803.114624	932.000000
803.150330	939.000000
803.185974	927.000000
803.221741	937.000000
803.257446	932.000000
803.293152	941.000000
803.328857	925.000000
803.364563	918.000000
803.400208	923.000000
803.435974	927.000000
803.471680	919.000000
803.507324	902.000000
803.543030	904.000000
803.578735	907.000000
803.614441	903.000000
803.650146	904.000000
803.685791	894.000000
803.721497	908.000000
803.757202	888.000000
803.792847	881.000000
803.828552	866.000000
803.864258	881.000000
803.899902	879.000000
803.935608	866.000000
803.971313	859.000000
804.006958	855.000000
804.042664	849.000000
804.078308	861.000000
804.113953	845.000000
804.149658	868.000000
804.185364	854.000000
804.221008	853.000000
804.256714	825.000000
804.292297	830.000000
804.328003	832.000000
804.363708	824.000000
804.399292	842.000000
804.434998	824.000000
804.470703	822.000000
804.506287	834.000000
804.541992	814.000000
804.577637	821.000000
804.613281	811.000000
804.648926	805.000000
804.684570	815.000000
804.720215	805.000000
804.755920	799.000000
804.791565	793.000000
804.827209	813.000000
804.862854	815.000000
804.898437	816.000000
804.934143	817.000000
804.969788	797.000000
805.005371	810.000000
805.041077	801.000000
805.076721	816.000000
805.112305	798.000000
805.147949	806.000000
805.183655	796.000000
805.219238	800.000000
805.254883	783.000000
805.290466	797.000000
805.326111	801.000000
805.361755	796.000000
805.397400	794.000000
805.432983	795.000000
805.468628	796.000000
805.504211	793.000000
805.539856	783.000000
805.575500	806.000000
805.611084	790.000000
805.646729	788.000000
805.682373	779.000000
805.717957	782.000000
805.753601	787.000000
805.789246	774.000000
805.824768	783.000000
805.860413	794.000000
805.895996	785.000000
805.931641	772.000000
805.967224	778.000000
806.002869	770.000000
806.038452	773.000000
806.074036	779.000000
806.109619	768.000000
806.145264	768.000000
806.180847	765.000000
806.216431	754.000000
806.252014	751.000000
806.287659	746.000000
806.323181	760.000000
806.358826	755.000000
806.394409	743.000000
806.429993	730.000000
806.465576	744.000000
806.501160	725.000000
806.536743	716.000000
806.572327	737.000000
806.607910	743.000000
806.643494	727.000000
806.679077	711.000000
806.714661	721.000000
806.750244	707.000000
806.785828	702.000000
806.821350	714.000000
806.856934	713.000000
806.892517	699.000000
806.928101	694.000000
806.963684	701.000000
806.999268	694.000000
807.034790	677.000000
807.070374	676.000000
807.105896	673.000000
807.141479	669.000000
807.177063	688.000000
807.212585	662.000000
807.248169	673.000000
807.283752	671.000000
807.319275	669.000000
807.354858	673.000000
807.390381	656.000000
807.425903	660.000000
807.461487	655.000000
807.497070	647.000000
807.532593	646.000000
807.568115	649.000000
807.603699	644.000000
807.639221	639.000000
807.674744	639.000000
807.710266	650.000000
807.745850	640.000000
807.781372	635.000000
807.816895	637.000000
807.852417	630.000000
807.888000	639.000000
807.923523	635.000000
807.959045	628.000000
807.994629	620.000000
808.030090	622.000000
808.065613	633.000000
808.101135	629.000000
808.136658	631.000000
808.172241	627.000000
808.207764	621.000000
808.243225	619.000000
808.278809	619.000000
808.314270	625.000000
808.349792	617.000000
808.385315	604.000000
808.420837	607.000000
808.456360	619.000000
808.491882	615.000000
808.527344	607.000000
808.562866	627.000000
808.598389	611.000000
808.633850	604.000000
808.669434	602.000000
808.704895	608.000000
808.740417	613.000000
808.775940	607.000000
808.811462	602.000000
808.846924	602.000000
808.882385	596.000000
808.917847	589.000000
808.953369	590.000000
808.988892	587.000000
809.024353	595.000000
809.059875	594.000000
809.095398	589.000000
809.130798	580.000000
809.166321	581.000000
809.201843	576.000000
809.237305	581.000000
809.272766	590.000000
809.308228	570.000000
809.343750	562.000000
809.379211	570.000000
809.414734	577.000000
809.450134	571.000000
809.485657	553.000000
809.521118	560.000000
809.556580	555.000000
809.592102	562.000000
809.627502	554.000000
809.663025	554.000000
809.698486	552.000000
809.733887	552.000000
809.769409	543.000000
809.804871	532.000000
809.840271	532.000000
809.875793	534.000000
809.911194	542.000000
809.946655	530.000000
809.982178	523.000000
810.017639	538.000000
810.053040	529.000000
810.088501	519.000000
810.123901	517.000000
810.159424	530.000000
810.194885	511.000000
810.230286	526.000000
810.265747	516.000000
810.301208	511.000000
810.336609	513.000000
810.372070	500.000000
810.407532	493.000000
810.442932	500.000000
810.478394	516.000000
810.513794	506.000000
810.549255	503.000000
810.584717	505.000000
810.620117	488.000000
810.655518	495.000000
810.690979	510.000000
810.726379	496.000000
810.761841	492.000000
810.797302	498.000000
810.832642	486.000000
810.868103	501.000000
810.903564	490.000000
810.938904	501.000000
810.974365	486.000000
811.009827	487.000000
811.045166	489.000000
811.080627	473.000000
811.115967	483.000000
811.151428	492.000000
811.186829	478.000000
811.222229	481.000000
811.257629	471.000000
811.293091	478.000000
811.328430	488.000000
811.363892	484.000000
811.399292	485.000000
811.434631	474.000000
811.470093	483.000000
811.505493	469.000000
811.540833	470.000000
811.576294	477.000000
811.611694	471.000000
811.647034	463.000000
811.682434	475.000000
811.717773	479.000000
811.753235	484.000000
811.788635	471.000000
811.823975	475.000000
811.859375	477.000000
811.894775	465.000000
811.930115	456.000000
811.965515	462.000000
812.000916	461.000000
812.036255	461.000000
812.071655	461.000000
812.106995	450.000000
812.142395	448.000000
812.177795	461.000000
812.213196	457.000000
812.248474	454.000000
812.283875	456.000000
812.319214	454.000000
812.354614	444.000000
812.390015	443.000000
812.425293	449.000000
812.460693	448.000000
812.496094	442.000000
812.531433	434.000000
812.566772	439.000000
812.602173	435.000000
812.637451	439.000000
812.672852	427.000000
812.708191	443.000000
812.743530	422.000000
812.778931	421.000000
812.814270	426.000000
812.849609	426.000000
812.884949	417.000000
812.920227	411.000000
812.955627	431.000000
812.990967	429.000000
813.026306	413.000000
813.061646	407.000000
813.096985	401.000000
813.132324	405.000000
813.167664	401.000000
813.203003	407.000000
813.238281	400.000000
813.273682	395.000000
813.308960	397.000000
813.344299	393.000000
813.379639	403.000000
813.414978	398.000000
813.450256	392.000000
813.485596	400.000000
813.520874	389.000000
813.556213	395.000000
813.591614	392.000000
813.626831	382.000000
813.662170	393.000000
813.697510	404.000000
813.732788	384.000000
813.768127	391.000000
813.803467	392.000000
813.838745	390.000000
813.874084	384.000000
813.909363	386.000000
813.944641	392.000000
813.979980	374.000000
814.015320	379.000000
814.050598	382.000000
814.085876	391.000000
814.121155	378.000000
814.156494	376.000000
814.191772	370.000000
814.227051	373.000000
814.262390	376.000000
814.297668	379.000000
814.332947	375.000000
814.368225	365.000000
814.403564	370.000000
814.438782	363.000000
814.474121	368.000000
814.509338	365.000000
814.544617	374.000000
814.579956	365.000000
814.615173	372.000000
814.650513	373.000000
814.685791	363.000000
814.721008	365.000000
814.756348	365.000000
814.791626	363.000000
814.826843	363.000000
814.862122	358.000000
814.897400	354.000000
814.932678	359.000000
814.967957	354.000000
815.003235	356.000000
815.038452	348.000000
815.073730	350.000000
815.108948	361.000000
815.144226	356.000000
815.179504	362.000000
815.214722	346.000000
815.250000	345.000000
815.285278	355.000000
815.320496	348.000000
815.355774	352.000000
815.391052	353.000000
815.426270	342.000000
815.461487	340.000000
815.496765	338.000000
815.531982	331.000000
815.567261	336.000000
815.602539	341.000000
815.637695	334.000000
815.672974	345.000000
815.708191	337.000000
815.743408	342.000000
815.778687	329.000000
815.813904	343.000000
815.849121	323.000000
815.884399	325.000000
815.919556	326.000000
815.954834	330.000000
815.990051	328.000000
816.025269	333.000000
816.060486	322.000000
816.095703	326.000000
816.130920	331.000000
816.166199	327.000000
816.201416	327.000000
816.236572	328.000000
816.271851	320.000000
816.307007	327.000000
816.342224	306.000000
816.377441	320.000000
816.412659	310.000000
816.447876	324.000000
816.483093	325.000000
816.518250	320.000000
816.553467	311.000000
816.588745	318.000000
816.623901	304.000000
816.659119	302.000000
816.694275	312.000000
816.729492	309.000000
816.764709	344.000000
816.799927	307.000000
816.835083	309.000000
816.870300	306.000000
816.905457	313.000000
816.940674	305.000000
816.975830	318.000000
817.010986	298.000000
817.046204	301.000000
817.081421	296.000000
817.116577	303.000000
817.151733	303.000000
817.186951	311.000000
817.222107	300.000000
817.257324	309.000000
817.292419	300.000000
817.327637	296.000000
817.362854	298.000000
817.398010	296.000000
817.433167	300.000000
817.468323	301.000000
817.503479	299.000000
817.538635	312.000000
817.573853	305.000000
817.608948	297.000000
817.644165	292.000000
817.679321	301.000000
817.714478	293.000000
817.749634	301.000000
817.784790	307.000000
817.819946	296.000000
817.855103	286.000000
817.890198	301.000000
817.925415	285.000000
817.960571	299.000000
817.995667	291.000000
818.030823	295.000000
818.066040	295.000000
818.101135	297.000000
818.136292	290.000000
818.171448	286.000000
818.206543	296.000000
818.241699	294.000000
818.276855	293.000000
818.311951	289.000000
818.347107	281.000000
818.382263	293.000000
818.417358	295.000000
818.452515	295.000000
818.487610	299.000000
818.522766	285.000000
818.557922	297.000000
818.593018	294.000000
818.628113	292.000000
818.663269	281.000000
818.698364	288.000000
818.733521	281.000000
818.768677	283.000000
818.803711	275.000000
818.838867	284.000000
818.874023	274.000000
818.909058	283.000000
818.944214	273.000000
818.979370	283.000000
819.014404	276.000000
819.049561	276.000000
819.084595	277.000000
819.119751	270.000000
819.154846	281.000000
819.189941	275.000000
819.225037	271.000000
819.260193	263.000000
819.295227	261.000000
819.330322	263.000000
819.365479	264.000000
819.400513	292.000000
819.435608	257.000000
819.470764	258.000000
819.505798	256.000000
819.540894	265.000000
819.575989	266.000000
819.611084	273.000000
819.646179	271.000000
819.681213	270.000000
819.716309	268.000000
819.751404	271.000000
819.786438	276.000000
819.821533	255.000000
819.856628	267.000000
819.891663	270.000000
819.926758	271.000000
819.961853	265.000000
819.996887	269.000000
820.031982	264.000000
820.067017	262.000000
820.102112	286.000000
820.137207	263.000000
820.172302	277.000000
820.207275	264.000000
820.242371	256.000000
820.277405	259.000000
820.312500	260.000000
820.347534	259.000000
820.382568	264.000000
820.417664	257.000000
820.452759	255.000000
820.487732	254.000000
820.522827	252.000000
820.557861	255.000000
820.592896	252.000000
820.627930	250.000000
820.662964	246.000000
820.698059	256.000000
820.733093	254.000000
820.768127	260.000000
820.803162	251.000000
820.838196	252.000000
820.873230	248.000000
820.908264	254.000000
820.943298	249.000000
820.978333	261.000000
821.013367	248.000000
821.048401	256.000000
821.083435	259.000000
821.118469	245.000000
821.153503	257.000000
821.188477	255.000000
821.223511	250.000000
821.258484	250.000000
821.293579	248.000000
821.328613	241.000000
821.363647	250.000000
821.398621	240.000000
821.433655	242.000000
821.468628	259.000000
821.503662	244.000000
821.538696	249.000000
821.573669	246.000000
821.608704	252.000000
821.643677	249.000000
821.678650	247.000000
821.713684	254.000000
821.748718	245.000000
821.783691	246.000000
821.818726	246.000000
821.853638	246.000000
821.888672	244.000000
821.923706	239.000000
821.958618	239.000000
821.993652	240.000000
822.028687	243.000000
822.063599	251.000000
822.098633	245.000000
822.133667	235.000000
822.168579	242.000000
822.203613	244.000000
822.238586	235.000000
822.273560	247.000000
822.308533	237.000000
822.343567	237.000000
822.378479	236.000000
822.413452	242.000000
822.448425	230.000000
822.483398	246.000000
822.518372	249.000000
822.553345	235.000000
822.588318	247.000000
822.623291	240.000000
822.658203	232.000000
822.693237	235.000000
822.728210	229.000000
822.763123	236.000000
822.798096	228.000000
822.833069	231.000000
822.867981	231.000000
822.902954	230.000000
822.937927	235.000000
822.972900	240.000000
823.007874	223.000000
823.042725	237.000000
823.077698	242.000000
823.112671	228.000000
823.147583	227.000000
823.182556	228.000000
823.217529	235.000000
823.252441	226.000000
823.287415	244.000000
823.322388	224.000000
823.357239	230.000000
823.392212	231.000000
823.427185	232.000000
823.462097	225.000000
823.497009	232.000000
823.531982	225.000000
823.566895	231.000000
823.601807	219.000000
823.636719	223.000000
823.671631	227.000000
823.706604	226.000000
823.741455	230.000000
823.776428	221.000000
823.811340	228.000000
823.846252	237.000000
823.881165	236.000000
823.916138	228.000000
823.950989	234.000000
823.985901	226.000000
824.020813	227.000000
824.055725	224.000000
824.090637	223.000000
824.125610	225.000000
824.160461	225.000000
824.195374	232.000000
824.230225	227.000000
824.265198	216.000000
824.300110	223.000000
824.334961	233.000000
824.369873	214.000000
824.404785	223.000000
824.439636	232.000000
824.474548	214.000000
824.509460	212.000000
824.544312	225.000000
824.579224	228.000000
824.614075	218.000000
824.648987	221.000000
824.683899	219.000000
824.718811	213.000000
824.753662	227.000000
824.788574	227.000000
824.823364	220.000000
824.858276	220.000000
824.893188	228.000000
824.928040	230.000000
824.962952	218.000000
824.997803	228.000000
825.032654	224.000000
825.067566	226.000000
825.102417	217.000000
825.137268	219.000000
825.172119	218.000000
825.206970	219.000000
825.241882	215.000000
825.276733	217.000000
825.311646	217.000000
825.346436	216.000000
825.381348	211.000000
825.416138	220.000000
825.450989	216.000000
825.485901	208.000000
825.520691	210.000000
825.555542	215.000000
825.590454	214.000000
825.625244	210.000000
825.660095	232.000000
825.695007	219.000000
825.729797	216.000000
825.764648	213.000000
825.799438	215.000000
825.834290	216.000000
825.869202	210.000000
825.903992	218.000000
825.938843	215.000000
825.973694	210.000000
826.008484	227.000000
826.043335	210.000000
826.078186	207.000000
826.112976	221.000000
826.147827	224.000000
826.182678	219.000000
826.217468	207.000000
826.252319	220.000000
826.287109	212.000000
826.321899	217.000000
826.356750	214.000000
826.391541	209.000000
826.426392	222.000000
826.461182	209.000000
826.495972	207.000000
826.530823	200.000000
826.565613	216.000000
826.600403	206.000000
826.635254	218.000000
826.670044	201.000000
826.704834	206.000000
826.739685	205.000000
826.774475	213.000000
826.809265	211.000000
826.844055	206.000000
826.878906	221.000000
826.913635	212.000000
826.948425	211.000000
826.983215	216.000000
827.018005	217.000000
827.052856	210.000000
827.087585	214.000000
827.122375	203.000000
827.157227	208.000000
827.191956	223.000000
827.226746	208.000000
827.261536	217.000000
827.296265	205.000000
827.331116	206.000000
827.365906	212.000000
827.400635	207.000000
827.435425	202.000000
827.470215	211.000000
827.504944	209.000000
827.539734	211.000000
827.574463	205.000000
827.609253	211.000000
827.644043	211.000000
827.678772	206.000000
827.713562	207.000000
827.748352	206.000000
827.783081	204.000000
827.817871	210.000000
827.852600	204.000000
827.887329	204.000000
827.922119	197.000000
827.956848	209.000000
827.991638	222.000000
828.026367	207.000000
828.061157	209.000000
828.095886	203.000000
828.130615	225.000000
828.165344	200.000000
828.200073	204.000000
828.234863	201.000000
828.269592	205.000000
828.304321	205.000000
828.339111	209.000000
828.373779	199.000000
828.408569	212.000000
828.443298	211.000000
828.477966	204.000000
828.512756	206.000000
828.547424	205.000000
828.582214	204.000000
828.616943	202.000000
828.651672	204.000000
828.686340	208.000000
828.721130	200.000000
828.755798	202.000000
828.790527	204.000000
828.825256	202.000000
828.859924	206.000000
828.894714	211.000000
828.929443	213.000000
828.964111	201.000000
828.998840	201.000000
829.033569	196.000000
829.068237	200.000000
829.102966	199.000000
829.137634	207.000000
829.172363	204.000000
829.207092	205.000000
829.241821	198.000000
829.276489	197.000000
829.311157	203.000000
829.345825	196.000000
829.380554	204.000000
829.415283	200.000000
829.449951	191.000000
829.484619	212.000000
829.519348	207.000000
829.554016	200.000000
829.588745	200.000000
829.623413	198.000000
829.658081	211.000000
829.692749	196.000000
829.727417	212.000000
829.762146	203.000000
829.796814	198.000000
829.831482	201.000000
829.866150	204.000000
829.900879	201.000000
829.935486	203.000000
829.970154	199.000000
830.004883	213.000000
830.039490	204.000000
830.074219	197.000000
830.108887	204.000000
830.143494	203.000000
830.178223	194.000000
830.212891	198.000000
830.247498	198.000000
830.282166	211.000000
830.316772	208.000000
830.351501	204.000000
830.386169	195.000000
830.420776	199.000000
830.455444	200.000000
830.490112	194.000000
830.524719	184.000000
830.559387	203.000000
830.594055	201.000000
830.628662	198.000000
830.663330	199.000000
830.697998	210.000000
830.732605	202.000000
830.767273	208.000000
830.801941	196.000000
830.836487	210.000000
830.871155	204.000000
830.905762	200.000000
830.940430	189.000000
830.975098	201.000000
831.009644	199.000000
831.044312	211.000000
831.078979	203.000000
831.113525	189.000000
831.148193	200.000000
831.182861	199.000000
831.217407	205.000000
831.252075	222.000000
831.286621	196.000000
831.321289	196.000000
831.355896	200.000000
831.390564	212.000000
831.425110	199.000000
831.459778	208.000000
831.494324	219.000000
831.528931	202.000000
831.563599	208.000000
831.598145	196.000000
831.632751	201.000000
831.667419	199.000000
831.701965	207.000000
831.736572	199.000000
831.771179	194.000000
831.805786	194.000000
831.840393	207.000000
831.874939	190.000000
831.909546	207.000000
831.944153	188.000000
831.978760	199.000000
832.013306	188.000000
832.047913	205.000000
832.082458	205.000000
832.117065	195.000000
832.151672	205.000000
832.186218	201.000000
832.220825	199.000000
832.255432	189.000000
832.289978	203.000000
832.324585	201.000000
832.359192	199.000000
832.393677	200.000000
832.428284	200.000000
832.462830	195.000000
832.497437	193.000000
832.531982	205.000000
832.566589	198.000000
832.601135	206.000000
832.635681	190.000000
832.670227	197.000000
832.704773	207.000000
832.739380	204.000000
832.773926	202.000000
832.808472	200.000000
832.843079	204.000000
832.877563	201.000000
832.912170	200.000000
832.946716	193.000000
832.981201	205.000000
833.015808	203.000000
833.050293	203.000000
833.084839	198.000000
833.119446	205.000000
833.153992	198.000000
833.188477	197.000000
833.223022	194.000000
833.257568	201.000000
833.292114	211.000000
833.326660	213.000000
833.361145	196.000000
833.395691	189.000000
833.430237	200.000000
833.464783	203.000000
833.499329	195.000000
833.533875	199.000000
833.568359	202.000000
833.602905	207.000000
833.637390	206.000000
833.671875	198.000000
833.706421	196.000000
833.740906	197.000000
833.775452	190.000000
833.809998	196.000000
833.844482	203.000000
833.879028	200.000000
833.913513	193.000000
833.947998	203.000000
833.982544	196.000000
834.017090	194.000000
834.051514	189.000000
834.086060	201.000000
834.120544	200.000000
834.155029	205.000000
834.189575	198.000000
834.223999	199.000000
834.258545	198.000000
834.293030	202.000000
834.327515	198.000000
834.362000	196.000000
834.396545	205.000000
834.430969	199.000000
834.465454	204.000000
834.500000	191.000000
834.534424	203.000000
834.568970	190.000000
834.603455	192.000000
834.637878	194.000000
834.672363	203.000000
834.706909	198.000000
834.741333	195.000000
834.775818	189.000000
834.810242	197.000000
834.844727	201.000000
834.879211	200.000000
834.913635	199.000000
834.948181	199.000000
834.982666	197.000000
835.017090	198.000000
835.051575	198.000000
835.086060	196.000000
835.120483	200.000000
835.154907	204.000000
835.189331	198.000000
835.223816	198.000000
835.258301	186.000000
835.292786	190.000000
835.327209	203.000000
835.361694	194.000000
835.396057	195.000000
835.430542	204.000000
835.465027	194.000000
835.499390	193.000000
835.533875	218.000000
835.568359	200.000000
835.602722	193.000000
835.637207	201.000000
835.671692	191.000000
835.706055	216.000000
835.740540	203.000000
835.774902	201.000000
835.809387	204.000000
835.843811	193.000000
835.878235	206.000000
835.912659	197.000000
835.947083	200.000000
835.981506	191.000000
836.015930	192.000000
836.050354	207.000000
836.084778	205.000000
836.119202	207.000000
836.153625	213.000000
836.187988	195.000000
836.222473	199.000000
836.256897	201.000000
836.291260	198.000000
836.325684	200.000000
836.360046	196.000000
836.394470	196.000000
836.428894	208.000000
836.463318	193.000000
836.497681	206.000000
836.532104	207.000000
836.566467	203.000000
836.600891	197.000000
836.635315	209.000000
836.669678	202.000000
836.704102	202.000000
836.738525	197.000000
836.772888	195.000000
836.807251	192.000000
836.841675	204.000000
836.876038	193.000000
836.910461	195.000000
836.944763	202.000000
836.979187	197.000000
837.013611	200.000000
837.047974	193.000000
837.082336	212.000000
837.116699	205.000000
837.151062	202.000000
837.185486	194.000000
837.219849	198.000000
837.254211	202.000000
837.288574	201.000000
837.322937	192.000000
837.357300	187.000000
837.391663	212.000000
837.426086	204.000000
837.460388	203.000000
837.494751	207.000000
837.529114	200.000000
837.563477	208.000000
837.597839	201.000000
837.632141	196.000000
837.666565	201.000000
837.700928	203.000000
837.735229	205.000000
837.769592	205.000000
837.803955	205.000000
837.838257	201.000000
837.872620	199.000000
837.906982	209.000000
837.941284	200.000000
837.975647	205.000000
838.010010	201.000000
838.044312	197.000000
838.078674	200.000000
838.112976	201.000000
838.147339	199.000000
838.181702	200.000000
838.216003	212.000000
838.250366	204.000000
838.284668	201.000000
838.318970	193.000000
838.353333	201.000000
838.387634	199.000000
838.421936	200.000000
838.456299	201.000000
838.490601	213.000000
838.524902	205.000000
838.559265	203.000000
838.593567	209.000000
838.627869	195.000000
838.662170	198.000000
838.696472	193.000000
838.730774	196.000000
838.765137	203.000000
838.799377	186.000000
838.833740	202.000000
838.868042	205.000000
838.902283	191.000000
838.936646	200.000000
838.970947	203.000000
839.005188	201.000000
839.039551	195.000000
839.073792	204.000000
839.108093	203.000000
839.142395	208.000000
839.176697	196.000000
839.210937	201.000000
839.245300	213.000000
839.279541	192.000000
839.313843	205.000000
839.348145	203.000000
839.382385	202.000000
839.416687	206.000000
839.450989	205.000000
839.485229	196.000000
839.519531	195.000000
839.553833	200.000000
839.588013	199.000000
839.622314	199.000000
839.656555	201.000000
839.690857	197.000000
839.725159	192.000000
839.759460	196.000000
839.793640	196.000000
839.827942	200.000000
839.862183	198.000000
839.896423	200.000000
839.930725	207.000000
839.964966	208.000000
839.999207	205.000000
840.033508	208.000000
840.067688	199.000000
840.101990	204.000000
840.136230	200.000000
840.170471	212.000000
840.204712	194.000000
840.238953	197.000000
840.273193	202.000000
840.307434	203.000000
840.341736	197.000000
840.375916	195.000000
840.410217	196.000000
840.444397	203.000000
840.478638	202.000000
840.512878	204.000000
840.547119	199.000000
840.581360	205.000000
840.615601	206.000000
840.649780	208.000000
840.684021	199.000000
840.718262	205.000000
840.752441	204.000000
840.786682	201.000000
840.820862	201.000000
840.855103	205.000000
840.889343	201.000000
840.923584	205.000000
840.957764	201.000000
840.992004	204.000000
841.026184	209.000000
841.060425	197.000000
841.094666	193.000000
841.128845	202.000000
841.163025	203.000000
841.197266	207.000000
841.231445	199.000000
841.265686	202.000000
841.299866	198.000000
841.334045	203.000000
841.368286	199.000000
841.402405	211.000000
841.436646	202.000000
841.470825	201.000000
841.505005	200.000000
841.539185	193.000000
841.573425	197.000000
841.607544	205.000000
841.641785	203.000000
841.675964	197.000000
841.710144	204.000000
841.744324	193.000000
841.778503	203.000000
841.812683	197.000000
841.846863	212.000000
841.881042	207.000000
841.915222	198.000000
841.949402	212.000000
841.983521	195.000000
842.017700	197.000000
842.051880	201.000000
842.086060	203.000000
842.120239	206.000000
842.154419	195.000000
842.188538	203.000000
842.222717	193.000000
842.256897	213.000000
842.291016	193.000000
842.325195	206.000000
842.359375	207.000000
842.393494	210.000000
842.427673	199.000000
842.461853	202.000000
842.495911	210.000000
842.530090	201.000000
842.564209	195.000000
842.598389	205.000000
842.632568	201.000000
842.666626	206.000000
842.700806	195.000000
842.734985	199.000000
842.769043	199.000000
842.803223	203.000000
842.837402	200.000000
842.871460	200.000000
842.905640	209.000000
842.939697	196.000000
842.973877	204.000000
843.007996	209.000000
843.042175	211.000000
843.076233	196.000000
843.110413	201.000000
843.144470	213.000000
843.178589	205.000000
843.212769	197.000000
843.246826	207.000000
843.280945	201.000000
843.315125	202.000000
843.349182	194.000000
843.383301	210.000000
843.417419	213.000000
843.451538	204.000000
843.485657	195.000000
843.519714	201.000000
843.553833	204.000000
843.587952	197.000000
843.622070	196.000000
843.656128	207.000000
843.690247	198.000000
843.724304	201.000000
843.758423	201.000000
843.792542	198.000000
843.826599	200.000000
843.860718	200.000000
843.894836	189.000000
843.928894	203.000000
843.963013	206.000000
843.997070	192.000000
844.031128	190.000000
844.065247	204.000000
844.099304	202.000000
844.133362	205.000000
844.167480	206.000000
844.201599	205.000000
844.235596	201.000000
844.269714	205.000000
844.303711	199.000000
844.337830	195.000000
844.371948	207.000000
844.405945	201.000000
844.440063	195.000000
844.474121	220.000000
844.508118	193.000000
844.542236	203.000000
844.576294	201.000000
844.610352	198.000000
844.644409	204.000000
844.678406	191.000000
844.712524	203.000000
844.746582	207.000000
844.780640	206.000000
844.814636	198.000000
844.848755	213.000000
844.882751	197.000000
844.916809	208.000000
844.950867	202.000000
844.984863	209.000000
845.018921	197.000000
845.052979	200.000000
845.086975	200.000000
845.121033	194.000000
845.155090	192.000000
845.189087	205.000000
845.223145	194.000000
845.257141	201.000000
845.291199	201.000000
845.325256	208.000000
845.359253	202.000000
845.393250	210.000000
845.427307	190.000000
845.461304	204.000000
845.495361	203.000000
845.529358	209.000000
845.563354	193.000000
845.597412	192.000000
845.631409	205.000000
845.665405	207.000000
845.699463	207.000000
845.733459	197.000000
845.767456	209.000000
845.801453	200.000000
845.835449	206.000000
845.869446	208.000000
845.903503	208.000000
845.937439	197.000000
845.971497	209.000000
846.005493	195.000000
846.039429	201.000000
846.073486	213.000000
846.107483	203.000000
846.141418	204.000000
846.175476	202.000000
846.209473	207.000000
846.243408	192.000000
846.277405	199.000000
846.311401	198.000000
846.345337	197.000000
846.379395	210.000000
846.413330	198.000000
846.447327	206.000000
846.481323	193.000000
846.515259	193.000000
846.549255	199.000000
846.583252	205.000000
846.617187	195.000000
846.651184	206.000000
846.685120	197.000000
846.719055	207.000000
846.753052	203.000000
846.786987	207.000000
846.820984	193.000000
846.854980	205.000000
846.888916	195.000000
846.922852	203.000000
846.956848	206.000000
846.990723	200.000000
847.024719	204.000000
847.058716	200.000000
847.092590	206.000000
847.126587	202.000000
847.160522	196.000000
847.194458	209.000000
847.228455	198.000000
847.262390	195.000000
847.296265	202.000000
847.330261	212.000000
847.364136	196.000000
847.398132	198.000000
847.432068	204.000000
847.466003	199.000000
847.499939	205.000000
847.533875	202.000000
847.567749	196.000000
847.601746	198.000000
847.635681	205.000000
847.669556	187.000000
847.703491	208.000000
847.737427	215.000000
847.771301	196.000000
847.805237	201.000000
847.839233	202.000000
847.873108	199.000000
847.907043	199.000000
847.940918	201.000000
847.974854	201.000000
848.008789	205.000000
848.042664	202.000000
848.076538	201.000000
848.110474	201.000000
848.144348	204.000000
848.178284	196.000000
848.212219	200.000000
848.246094	197.000000
848.279968	199.000000
848.313904	207.000000
848.347778	197.000000
848.381653	197.000000
848.415588	195.000000
848.449463	195.000000
848.483337	198.000000
848.517212	211.000000
848.551086	203.000000
848.585022	194.000000
848.618835	211.000000
848.652771	204.000000
848.686646	191.000000
848.720520	213.000000
848.754395	200.000000
848.788330	206.000000
848.822144	207.000000
848.856018	200.000000
848.889954	207.000000
848.923767	193.000000
848.957642	201.000000
848.991577	202.000000
849.025391	197.000000
849.059265	197.000000
849.093079	199.000000
849.126953	195.000000
849.160828	209.000000
849.194641	196.000000
849.228577	200.000000
849.262451	202.000000
849.296265	196.000000
849.330139	196.000000
849.364014	202.000000
849.397827	203.000000
849.431702	200.000000
849.465515	203.000000
849.499329	192.000000
849.533203	194.000000
849.567078	191.000000
849.600891	203.000000
849.634766	205.000000
849.668518	205.000000
849.702393	197.000000
849.736267	195.000000
849.770020	215.000000
849.803894	203.000000
849.837769	204.000000
849.871521	199.000000
849.905396	206.000000
849.939270	196.000000
849.973022	201.000000
850.006897	200.000000
850.040710	205.000000
850.074524	201.000000
850.108337	201.000000
850.142151	204.000000
850.175964	211.000000
850.209778	197.000000
850.243530	185.000000
850.277405	209.000000
850.311218	201.000000
850.344971	201.000000
850.378845	209.000000
850.412659	195.000000
850.446411	203.000000
850.480225	203.000000
850.514038	207.000000
850.547791	200.000000
850.581665	201.000000
850.615417	196.000000
850.649231	201.000000
850.683044	200.000000
850.716858	199.000000
850.750610	201.000000
850.784424	206.000000
850.818176	198.000000
850.851929	198.000000
850.885742	200.000000
850.919495	198.000000
850.953308	208.000000
850.987122	210.000000
851.020874	198.000000
851.054626	193.000000
851.088440	207.000000
851.122192	201.000000
851.156006	201.000000
851.189697	200.000000
851.223511	199.000000
851.257263	201.000000
851.291077	203.000000
851.324829	194.000000
851.358582	197.000000
851.392334	199.000000
851.426086	197.000000
851.459900	211.000000
851.493591	204.000000
851.527344	201.000000
851.561157	202.000000
851.594849	207.000000
851.628662	202.000000
851.662415	210.000000
851.696106	204.000000
851.729858	201.000000
851.763611	192.000000
851.797363	201.000000
851.831116	198.000000
851.864868	207.000000
851.898560	200.000000
851.932312	201.000000
851.966064	201.000000
851.999817	203.000000
852.033569	201.000000
852.067261	205.000000
852.101013	193.000000
852.134766	197.000000
852.168457	187.000000
852.202209	208.000000
852.235901	195.000000
852.269592	204.000000
852.303345	209.000000
852.337036	203.000000
852.370789	199.000000
852.404541	206.000000
852.438171	192.000000
852.471924	197.000000
852.505676	193.000000
852.539307	201.000000
852.573059	195.000000
852.606812	199.000000
852.640442	196.000000
852.674194	209.000000
852.707886	215.000000
852.741577	205.000000
852.775269	197.000000
852.809021	201.000000
852.842651	202.000000
852.876404	209.000000
852.910034	199.000000
852.943787	210.000000
852.977478	203.000000
853.011108	198.000000
853.044861	200.000000
853.078552	208.000000
853.112183	201.000000
853.145874	203.000000
853.179626	196.000000
853.213257	204.000000
853.246948	200.000000
853.280640	211.000000
853.314270	201.000000
853.347961	209.000000
853.381653	207.000000
853.415283	204.000000
853.448975	197.000000
853.482605	207.000000
853.516296	201.000000
853.549988	190.000000
853.583618	201.000000
853.617310	201.000000
853.651001	199.000000
853.684631	194.000000
853.718323	197.000000
853.751953	203.000000
853.785583	196.000000
853.819275	204.000000
853.852966	201.000000
853.886536	192.000000
853.920227	197.000000
853.953918	199.000000
853.987488	201.000000
854.021179	206.000000
854.054749	211.000000
854.088440	202.000000
854.122131	195.000000
854.155701	204.000000
854.189331	196.000000
854.223022	205.000000
854.256592	203.000000
854.290283	197.000000
854.323914	204.000000
854.357483	200.000000
854.391174	205.000000
854.424744	214.000000
854.458374	201.000000
854.492065	213.000000
854.525696	200.000000
854.559265	208.000000
854.592896	217.000000
854.626465	203.000000
854.660095	206.000000
854.693787	207.000000
854.727356	198.000000
854.760986	203.000000
854.794617	203.000000
854.828186	200.000000
854.861816	203.000000
854.895447	206.000000
854.929016	201.000000
854.962585	206.000000
854.996155	210.000000
855.029785	205.000000
855.063416	203.000000
855.097046	207.000000
855.130615	192.000000
855.164185	208.000000
855.197754	199.000000
855.231384	209.000000
855.264954	198.000000
855.298523	202.000000
855.332153	200.000000
855.365723	207.000000
855.399292	197.000000
855.432922	201.000000
855.466492	199.000000
855.500061	199.000000
855.533630	195.000000
855.567200	204.000000
855.600769	206.000000
855.634338	207.000000
855.667969	198.000000
855.701477	197.000000
855.735046	194.000000
855.768616	196.000000
855.802185	202.000000
855.835754	218.000000
855.869324	193.000000
855.902893	204.000000
855.936401	210.000000
855.969971	200.000000
856.003540	196.000000
856.037109	205.000000
856.070618	198.000000
856.104187	193.000000
856.137695	202.000000
856.171265	191.000000
856.204834	200.000000
856.238403	208.000000
856.271912	196.000000
856.305481	204.000000
856.338989	199.000000
856.372559	203.000000
856.406128	207.000000
856.439636	200.000000
856.473145	199.000000
856.506653	209.000000
856.540222	203.000000
856.573792	204.000000
856.607300	203.000000
856.640808	193.000000
856.674377	202.000000
856.707825	228.000000
856.741394	203.000000
856.774902	194.000000
856.808472	195.000000
856.841980	202.000000
856.875488	209.000000
856.908936	192.000000
856.942505	201.000000
856.976013	196.000000
857.009521	197.000000
857.043030	202.000000
857.076477	201.000000
857.110046	204.000000
857.143555	204.000000
857.177063	207.000000
857.210571	200.000000
857.244080	195.000000
857.277527	204.000000
857.311035	201.000000
857.344543	207.000000
857.378052	200.000000
857.411499	207.000000
857.445068	211.000000
857.478516	202.000000
857.512024	199.000000
857.545532	199.000000
857.578979	203.000000
857.612427	201.000000
857.645874	197.000000
857.679382	199.000000
857.712891	202.000000
857.746399	201.000000
857.779846	211.000000
857.813354	200.000000
857.846741	203.000000
857.880249	195.000000
857.913757	202.000000
857.947266	205.000000
857.980652	204.000000
858.014160	196.000000
858.047546	199.000000
858.081055	199.000000
858.114563	209.000000
858.147949	197.000000
858.181458	204.000000
858.214844	197.000000
858.248352	196.000000
858.281799	206.000000
858.315308	215.000000
858.348694	203.000000
858.382141	211.000000
858.415588	204.000000
858.449036	208.000000
858.482483	200.000000
858.515930	196.000000
858.549377	204.000000
858.582825	205.000000
858.616211	204.000000
858.649658	205.000000
858.683105	194.000000
858.716553	200.000000
858.750000	196.000000
858.783386	195.000000
858.816833	194.000000
858.850281	202.000000
858.883728	204.000000
858.917114	200.000000
858.950562	209.000000
858.983948	209.000000
859.017395	206.000000
859.050781	198.000000
859.084167	197.000000
859.117615	195.000000
859.151062	208.000000
859.184448	195.000000
859.217834	199.000000
859.251282	201.000000
859.284668	197.000000
859.318054	190.000000
859.351440	200.000000
859.384888	206.000000
859.418274	194.000000
859.451721	193.000000
859.485046	199.000000
859.518494	201.000000
859.551819	197.000000
859.585266	198.000000
859.618652	205.000000
859.652039	195.000000
859.685425	191.000000
859.718811	193.000000
859.752197	189.000000
859.785583	205.000000
859.819031	210.000000
859.852356	205.000000
859.885742	195.000000
859.919067	199.000000
859.952454	201.000000
859.985901	208.000000
860.019287	198.000000
860.052612	0.000000
860.085999	0.000000
860.119324	0.000000
860.152710	0.000000
860.186096	0.000000
860.219421	0.000000
860.252808	0.000000
860.286133	0.000000
860.319519	0.000000
860.352905	0.000000
860.386292	0.000000
860.419617	0.000000
860.452942	0.000000
860.486267	0.000000
860.519653	0.000000
860.553040	0.000000
860.586365	0.000000
860.619690	0.000000
860.653076	0.000000
860.686340	0.000000
860.719727	0.000000
860.753113	0.000000
860.786377	0.000000
860.819763	0.000000
860.853027	0.000000
860.886414	0.000000
860.919739	0.000000
860.953125	0.000000
860.986389	0.000000
861.019714	0.000000
861.053040	0.000000
861.086365	0.000000
861.119690	0.000000
861.153076	0.000000
861.186340	0.000000
861.219666	0.000000
861.252930	0.000000
861.286316	0.000000
861.319641	0.000000
861.352905	0.000000
861.386230	0.000000
861.419495	0.000000
861.452820	0.000000
861.486145	0.000000
861.519470	0.000000
861.552734	0.000000
861.586060	0.000000
861.619324	0.000000
861.652649	0.000000
861.685974	0.000000
861.719238	0.000000
861.752563	0.000000
861.785828	0.000000
861.819092	0.000000
861.852417	0.000000
861.885742	0.000000
861.918945	0.000000
861.952271	0.000000
861.985535	0.000000
862.018799	0.000000
862.052124	0.000000
862.085449	0.000000
862.118652	0.000000
862.151978	0.000000
862.185181	0.000000
862.218506	0.000000
862.251770	0.000000
862.285034	0.000000
862.318298	0.000000
862.351562	0.000000
862.384827	0.000000
862.418091	0.000000
862.451355	0.000000
862.484619	0.000000
862.517883	0.000000
862.551086	0.000000
862.584351	0.000000
862.617676	0.000000
862.650940	0.000000
862.684143	0.000000
862.717407	0.000000
862.750610	0.000000
862.783875	0.000000
862.817139	0.000000
862.850342	0.000000
862.883606	0.000000
862.916870	0.000000
862.950073	0.000000
862.983337	0.000000
863.016602	0.000000
863.049805	0.000000
863.083069	0.000000
863.116211	0.000000
863.149475	0.000000
863.182739	0.000000
863.216003	0.000000
863.249146	0.000000
863.282410	0.000000
863.315613	0.000000
863.348816	0.000000
863.382080	0.000000
863.415222	0.000000
863.448486	0.000000
863.481689	0.000000
863.514893	0.000000
863.548157	0.000000
863.581360	0.000000
863.614502	0.000000
863.647766	0.000000
863.680908	0.000000
863.714172	0.000000
863.747375	0.000000
863.780579	0.000000
863.813721	0.000000
863.846985	0.000000
863.880127	0.000000
863.913330	0.000000
863.946533	0.000000
863.979675	0.000000
864.012939	0.000000
