Model Number: SPM-001-M   
Serial Number: 10090201
Firmware Version: 004.17.6
Exposure Time: 500000.000000us
Data Taken on: 17-08-2020 11:03:25.702
Wavelength	Amplitude
733.770752	0.000000
733.808716	0.000000
733.846619	0.000000
733.884583	0.000000
733.922546	0.000000
733.960449	0.000000
733.998413	0.000000
734.036377	0.000000
734.074219	0.000000
734.112183	0.000000
734.150085	0.000000
734.188049	0.000000
734.226013	0.000000
734.263916	0.000000
734.301819	0.000000
734.339783	0.000000
734.377686	0.000000
734.415588	0.000000
734.453552	0.000000
734.491455	0.000000
734.529419	0.000000
734.567322	0.000000
734.605225	0.000000
734.643127	0.000000
734.681091	0.000000
734.718994	0.000000
734.756897	0.000000
734.794800	0.000000
734.832703	0.000000
734.870667	0.000000
734.908508	0.000000
734.946472	0.000000
734.984375	0.000000
735.022278	0.000000
735.060181	0.000000
735.098083	0.000000
735.135986	0.000000
735.173889	0.000000
735.211792	0.000000
735.249695	0.000000
735.287598	0.000000
735.325439	0.000000
735.363403	0.000000
735.401306	0.000000
735.439148	0.000000
735.477051	0.000000
735.515015	0.000000
735.552856	0.000000
735.590759	0.000000
735.628662	0.000000
735.666504	0.000000
735.704407	0.000000
735.742310	0.000000
735.780212	0.000000
735.818115	0.000000
735.856018	0.000000
735.893860	0.000000
735.931763	0.000000
735.969604	0.000000
736.007507	0.000000
736.045410	0.000000
736.083252	0.000000
736.121094	0.000000
736.158997	0.000000
736.196838	0.000000
736.234741	0.000000
736.272644	0.000000
736.310486	0.000000
736.348389	0.000000
736.386230	0.000000
736.424072	0.000000
736.461975	0.000000
736.499878	0.000000
736.537720	0.000000
736.575562	0.000000
736.613403	0.000000
736.651306	0.000000
736.689148	0.000000
736.726990	0.000000
736.764893	0.000000
736.802734	0.000000
736.840576	0.000000
736.878418	0.000000
736.916321	0.000000
736.954102	0.000000
736.992004	0.000000
737.029846	0.000000
737.067688	0.000000
737.105530	0.000000
737.143372	0.000000
737.181213	0.000000
737.219116	0.000000
737.256897	0.000000
737.294739	0.000000
737.332642	0.000000
737.370422	0.000000
737.408325	0.000000
737.446167	0.000000
737.483948	0.000000
737.521790	0.000000
737.559692	0.000000
737.597473	0.000000
737.635315	0.000000
737.673157	0.000000
737.710999	0.000000
737.748840	0.000000
737.786621	0.000000
737.824463	0.000000
737.862305	0.000000
737.900085	0.000000
737.937927	0.000000
737.975769	0.000000
738.013550	0.000000
738.051392	0.000000
738.089233	0.000000
738.127014	0.000000
738.164856	0.000000
738.202698	0.000000
738.240479	0.000000
738.278320	0.000000
738.316162	0.000000
738.353943	0.000000
738.391785	0.000000
738.429565	0.000000
738.467407	0.000000
738.505188	0.000000
738.542969	0.000000
738.580811	0.000000
738.618652	0.000000
738.656372	0.000000
738.694214	0.000000
738.732056	0.000000
738.769836	0.000000
738.807617	0.000000
738.845459	0.000000
738.883240	0.000000
738.921021	0.000000
738.958862	0.000000
738.996582	0.000000
739.034424	0.000000
739.072205	0.000000
739.109985	0.000000
739.147827	0.000000
739.185547	0.000000
739.223389	0.000000
739.261169	0.000000
739.298889	0.000000
739.336731	0.000000
739.374512	0.000000
739.412292	0.000000
739.450073	0.000000
739.487854	0.000000
739.525635	0.000000
739.563416	0.000000
739.601135	0.000000
739.638977	0.000000
739.676758	0.000000
739.714478	0.000000
739.752258	0.000000
739.790100	0.000000
739.827820	0.000000
739.865601	0.000000
739.903381	0.000000
739.941101	0.000000
739.978882	205.000000
740.016724	199.000000
740.054443	205.000000
740.092224	198.000000
740.130005	200.000000
740.167725	197.000000
740.205505	198.000000
740.243225	213.000000
740.281006	199.000000
740.318787	195.000000
740.356506	207.000000
740.394287	206.000000
740.432068	195.000000
740.469727	195.000000
740.507507	203.000000
740.545288	200.000000
740.583008	209.000000
740.620789	200.000000
740.658569	192.000000
740.696228	200.000000
740.734009	207.000000
740.771790	192.000000
740.809509	206.000000
740.847229	193.000000
740.884949	198.000000
740.922729	192.000000
740.960449	199.000000
740.998169	191.000000
741.035950	197.000000
741.073669	200.000000
741.111389	205.000000
741.149170	209.000000
741.186890	208.000000
741.224609	201.000000
741.262329	204.000000
741.300110	203.000000
741.337769	193.000000
741.375549	192.000000
741.413208	196.000000
741.450989	192.000000
741.488708	196.000000
741.526367	196.000000
741.564148	208.000000
741.601868	205.000000
741.639526	197.000000
741.677307	204.000000
741.715027	204.000000
741.752686	195.000000
741.790466	210.000000
741.828186	203.000000
741.865845	196.000000
741.903564	189.000000
741.941345	208.000000
741.979004	194.000000
742.016724	203.000000
742.054382	201.000000
742.092102	203.000000
742.129822	192.000000
742.167480	199.000000
742.205200	200.000000
742.242920	203.000000
742.280640	208.000000
742.318359	194.000000
742.356079	201.000000
742.393738	202.000000
742.431396	199.000000
742.469116	202.000000
742.506775	193.000000
742.544495	199.000000
742.582214	211.000000
742.619873	199.000000
742.657593	211.000000
742.695251	209.000000
742.732971	198.000000
742.770630	202.000000
742.808289	203.000000
742.846008	200.000000
742.883728	202.000000
742.921326	198.000000
742.959045	194.000000
742.996765	200.000000
743.034424	204.000000
743.072083	198.000000
743.109802	201.000000
743.147400	194.000000
743.185120	205.000000
743.222839	199.000000
743.260437	208.000000
743.298157	206.000000
743.335754	193.000000
743.373474	198.000000
743.411133	197.000000
743.448792	200.000000
743.486450	202.000000
743.524170	199.000000
743.561768	203.000000
743.599487	208.000000
743.637146	214.000000
743.674744	202.000000
743.712463	195.000000
743.750122	201.000000
743.787720	201.000000
743.825439	198.000000
743.863037	199.000000
743.900696	204.000000
743.938416	224.000000
743.976013	201.000000
744.013672	209.000000
744.051331	209.000000
744.088928	208.000000
744.126587	210.000000
744.164307	201.000000
744.201904	197.000000
744.239563	201.000000
744.277222	207.000000
744.314819	200.000000
744.352478	208.000000
744.390137	201.000000
744.427734	200.000000
744.465393	195.000000
744.502991	196.000000
744.540649	203.000000
744.578308	201.000000
744.615906	194.000000
744.653564	188.000000
744.691223	202.000000
744.728821	191.000000
744.766418	197.000000
744.804077	203.000000
744.841675	199.000000
744.879333	193.000000
744.916992	195.000000
744.954529	201.000000
744.992187	206.000000
745.029785	201.000000
745.067444	197.000000
745.105042	201.000000
745.142639	201.000000
745.180298	209.000000
745.217896	196.000000
745.255493	197.000000
745.293152	208.000000
745.330750	206.000000
745.368347	206.000000
745.405945	205.000000
745.443604	202.000000
745.481140	204.000000
745.518799	201.000000
745.556396	203.000000
745.593994	207.000000
745.631592	196.000000
745.669189	197.000000
745.706787	201.000000
745.744385	199.000000
745.781982	201.000000
745.819580	194.000000
745.857178	196.000000
745.894775	200.000000
745.932373	197.000000
745.969971	206.000000
746.007568	191.000000
746.045166	209.000000
746.082764	207.000000
746.120300	206.000000
746.157898	200.000000
746.195557	202.000000
746.233093	193.000000
746.270691	205.000000
746.308228	201.000000
746.345825	204.000000
746.383423	202.000000
746.420959	194.000000
746.458557	197.000000
746.496155	196.000000
746.533691	198.000000
746.571289	198.000000
746.608887	198.000000
746.646423	205.000000
746.684021	205.000000
746.721619	201.000000
746.759155	205.000000
746.796753	192.000000
746.834351	196.000000
746.871826	199.000000
746.909424	210.000000
746.946960	203.000000
746.984558	201.000000
747.022156	197.000000
747.059631	209.000000
747.097229	197.000000
747.134827	201.000000
747.172363	206.000000
747.209900	202.000000
747.247498	192.000000
747.285034	208.000000
747.322571	208.000000
747.360168	202.000000
747.397644	189.000000
747.435242	208.000000
747.472778	211.000000
747.510315	196.000000
747.547913	196.000000
747.585388	210.000000
747.622925	195.000000
747.660522	197.000000
747.697998	195.000000
747.735596	199.000000
747.773132	195.000000
747.810669	202.000000
747.848206	200.000000
747.885742	195.000000
747.923279	193.000000
747.960815	201.000000
747.998352	204.000000
748.035889	205.000000
748.073425	202.000000
748.110901	199.000000
748.148437	199.000000
748.185974	203.000000
748.223511	216.000000
748.261047	202.000000
748.298584	200.000000
748.336060	201.000000
748.373596	207.000000
748.411133	214.000000
748.448608	198.000000
748.486145	204.000000
748.523682	207.000000
748.561218	205.000000
748.598755	203.000000
748.636292	201.000000
748.673706	202.000000
748.711243	208.000000
748.748718	202.000000
748.786255	202.000000
748.823792	203.000000
748.861267	197.000000
748.898804	202.000000
748.936340	202.000000
748.973816	198.000000
749.011292	207.000000
749.048828	202.000000
749.086304	199.000000
749.123840	213.000000
749.161316	195.000000
749.198792	210.000000
749.236328	205.000000
749.273743	202.000000
749.311279	197.000000
749.348816	206.000000
749.386230	205.000000
749.423767	189.000000
749.461304	202.000000
749.498718	200.000000
749.536255	208.000000
749.573730	213.000000
749.611206	205.000000
749.648682	198.000000
749.686218	200.000000
749.723633	207.000000
749.761169	194.000000
749.798645	199.000000
749.836060	201.000000
749.873596	199.000000
749.911011	202.000000
749.948547	209.000000
749.986023	195.000000
750.023437	202.000000
750.060913	194.000000
750.098450	197.000000
750.135864	203.000000
750.173340	205.000000
750.210815	205.000000
750.248291	192.000000
750.285767	204.000000
750.323242	204.000000
750.360657	206.000000
750.398132	191.000000
750.435608	205.000000
750.473022	198.000000
750.510498	197.000000
750.547974	194.000000
750.585449	198.000000
750.622925	189.000000
750.660339	209.000000
750.697815	199.000000
750.735291	204.000000
750.772644	202.000000
750.810120	201.000000
750.847595	202.000000
750.885010	194.000000
750.922485	208.000000
750.959961	200.000000
750.997375	205.000000
751.034851	207.000000
751.072266	204.000000
751.109680	192.000000
751.147156	207.000000
751.184570	203.000000
751.221985	199.000000
751.259460	192.000000
751.296875	202.000000
751.334290	200.000000
751.371765	207.000000
751.409180	203.000000
751.446594	203.000000
751.484070	206.000000
751.521423	206.000000
751.558899	198.000000
751.596375	211.000000
751.633728	210.000000
751.671204	215.000000
751.708618	198.000000
751.746033	204.000000
751.783447	192.000000
751.820801	202.000000
751.858276	200.000000
751.895691	200.000000
751.933105	202.000000
751.970520	201.000000
752.007935	196.000000
752.045349	207.000000
752.082764	202.000000
752.120178	197.000000
752.157532	196.000000
752.195007	195.000000
752.232422	200.000000
752.269775	209.000000
752.307190	203.000000
752.344543	195.000000
752.382019	198.000000
752.419434	200.000000
752.456787	200.000000
752.494202	207.000000
752.531616	203.000000
752.568970	208.000000
752.606384	198.000000
752.643799	201.000000
752.681152	205.000000
752.718567	208.000000
752.755981	191.000000
752.793335	200.000000
752.830750	190.000000
752.868164	208.000000
752.905518	191.000000
752.942932	207.000000
752.980225	193.000000
753.017639	206.000000
753.055054	204.000000
753.092407	208.000000
753.129822	209.000000
753.167175	214.000000
753.204529	201.000000
753.241943	198.000000
753.279358	202.000000
753.316650	201.000000
753.354065	205.000000
753.391479	208.000000
753.428772	210.000000
753.466187	206.000000
753.503479	199.000000
753.540894	198.000000
753.578308	196.000000
753.615601	195.000000
753.653015	203.000000
753.690369	195.000000
753.727722	199.000000
753.765076	193.000000
753.802490	194.000000
753.839783	191.000000
753.877136	200.000000
753.914551	212.000000
753.951843	196.000000
753.989258	203.000000
754.026611	202.000000
754.063904	200.000000
754.101257	193.000000
754.138611	190.000000
754.175964	205.000000
754.213318	213.000000
754.250610	191.000000
754.288025	201.000000
754.325378	193.000000
754.362671	203.000000
754.400024	196.000000
754.437378	205.000000
754.474670	211.000000
754.512085	201.000000
754.549438	206.000000
754.586731	197.000000
754.624084	203.000000
754.661438	196.000000
754.698730	206.000000
754.736084	201.000000
754.773376	201.000000
754.810730	203.000000
754.848083	204.000000
754.885315	207.000000
754.922668	193.000000
754.960022	197.000000
754.997314	205.000000
755.034668	199.000000
755.072021	201.000000
755.109253	201.000000
755.146606	206.000000
755.183960	200.000000
755.221252	207.000000
755.258545	206.000000
755.295898	204.000000
755.333191	211.000000
755.370544	205.000000
755.407776	206.000000
755.445129	199.000000
755.482422	206.000000
755.519714	199.000000
755.557068	194.000000
755.594360	191.000000
755.631653	204.000000
755.668945	211.000000
755.706299	204.000000
755.743530	212.000000
755.780884	215.000000
755.818176	205.000000
755.855408	212.000000
755.892761	203.000000
755.930054	204.000000
755.967346	210.000000
756.004639	206.000000
756.041870	206.000000
756.079224	214.000000
756.116516	205.000000
756.153748	209.000000
756.191040	215.000000
756.228394	213.000000
756.265625	198.000000
756.302917	210.000000
756.340210	205.000000
756.377441	216.000000
756.414795	216.000000
756.452087	206.000000
756.489319	201.000000
756.526611	214.000000
756.563843	211.000000
756.601135	219.000000
756.638428	220.000000
756.675659	208.000000
756.712952	215.000000
756.750244	211.000000
756.787476	210.000000
756.824768	212.000000
756.862061	207.000000
756.899292	255.000000
756.936584	215.000000
756.973816	220.000000
757.011047	227.000000
757.048340	207.000000
757.085632	210.000000
757.122864	223.000000
757.160156	206.000000
757.197327	212.000000
757.234619	215.000000
757.271912	205.000000
757.309082	219.000000
757.346375	207.000000
757.383667	219.000000
757.420837	214.000000
757.458130	214.000000
757.495422	209.000000
757.532593	213.000000
757.569885	205.000000
757.607117	208.000000
757.644348	218.000000
757.681580	230.000000
757.718811	198.000000
757.756042	217.000000
757.793335	213.000000
757.830505	217.000000
757.867798	211.000000
757.905029	207.000000
757.942200	215.000000
757.979492	210.000000
758.016724	217.000000
758.053894	216.000000
758.091187	237.000000
758.128418	213.000000
758.165588	213.000000
758.202820	229.000000
758.240112	214.000000
758.277283	225.000000
758.314514	221.000000
758.351685	211.000000
758.388916	230.000000
758.426147	225.000000
758.463379	227.000000
758.500610	219.000000
758.537842	221.000000
758.575012	225.000000
758.612244	214.000000
758.649475	230.000000
758.686646	213.000000
758.723877	226.000000
758.761108	225.000000
758.798279	216.000000
758.835510	223.000000
758.872742	225.000000
758.909851	224.000000
758.947083	219.000000
758.984253	224.000000
759.021484	225.000000
759.058716	222.000000
759.095886	226.000000
759.133057	222.000000
759.170288	220.000000
759.207458	220.000000
759.244690	237.000000
759.281860	234.000000
759.319031	223.000000
759.356262	224.000000
759.393433	224.000000
759.430603	223.000000
759.467773	221.000000
759.505005	227.000000
759.542175	230.000000
759.579346	224.000000
759.616516	225.000000
759.653687	227.000000
759.690918	219.000000
759.728027	226.000000
759.765259	233.000000
759.802429	230.000000
759.839539	226.000000
759.876770	233.000000
759.913940	241.000000
759.951111	227.000000
759.988281	228.000000
760.025452	221.000000
760.062561	222.000000
760.099792	235.000000
760.136963	231.000000
760.174072	221.000000
760.211243	221.000000
760.248413	226.000000
760.285583	225.000000
760.322754	239.000000
760.359863	236.000000
760.397034	229.000000
760.434204	228.000000
760.471375	230.000000
760.508545	226.000000
760.545715	228.000000
760.582825	225.000000
760.619995	228.000000
760.657166	223.000000
760.694275	237.000000
760.731445	234.000000
760.768555	234.000000
760.805664	239.000000
760.842834	233.000000
760.879944	234.000000
760.917114	235.000000
760.954285	232.000000
760.991394	229.000000
761.028564	242.000000
761.065674	240.000000
761.102783	233.000000
761.139954	245.000000
761.177124	241.000000
761.214172	251.000000
761.251343	239.000000
761.288452	240.000000
761.325562	239.000000
761.362732	237.000000
761.399841	240.000000
761.436951	242.000000
761.474121	237.000000
761.511169	240.000000
761.548340	245.000000
761.585449	247.000000
761.622559	248.000000
761.659668	246.000000
761.696838	246.000000
761.733887	244.000000
761.771057	244.000000
761.808167	248.000000
761.845276	248.000000
761.882385	262.000000
761.919434	251.000000
761.956604	270.000000
761.993713	243.000000
762.030762	256.000000
762.067871	252.000000
762.105042	250.000000
762.142090	257.000000
762.179199	253.000000
762.216309	259.000000
762.253418	269.000000
762.290527	261.000000
762.327637	264.000000
762.364685	250.000000
762.401794	263.000000
762.438904	261.000000
762.475952	253.000000
762.513062	245.000000
762.550110	251.000000
762.587219	268.000000
762.624329	263.000000
762.661377	264.000000
762.698486	260.000000
762.735596	262.000000
762.772644	257.000000
762.809753	253.000000
762.846863	260.000000
762.883911	264.000000
762.921021	266.000000
762.958069	266.000000
762.995117	269.000000
763.032227	273.000000
763.069336	257.000000
763.106323	260.000000
763.143433	256.000000
763.180481	267.000000
763.217590	265.000000
763.254639	262.000000
763.291687	258.000000
763.328735	272.000000
763.365845	259.000000
763.402893	264.000000
763.439941	263.000000
763.477051	275.000000
763.514038	274.000000
763.551147	272.000000
763.588196	273.000000
763.625244	268.000000
763.662292	278.000000
763.699402	283.000000
763.736389	268.000000
763.773499	284.000000
763.810486	279.000000
763.847534	281.000000
763.884644	279.000000
763.921631	277.000000
763.958679	289.000000
763.995728	278.000000
764.032776	286.000000
764.069824	274.000000
764.106873	285.000000
764.143860	285.000000
764.180969	273.000000
764.218018	288.000000
764.255005	283.000000
764.292053	283.000000
764.329102	299.000000
764.366089	297.000000
764.403137	296.000000
764.440125	284.000000
764.477173	295.000000
764.514221	292.000000
764.551208	289.000000
764.588257	280.000000
764.625305	291.000000
764.662292	291.000000
764.699341	298.000000
764.736389	290.000000
764.773376	311.000000
764.810425	291.000000
764.847473	305.000000
764.884399	296.000000
764.921448	312.000000
764.958435	306.000000
764.995483	295.000000
765.032532	309.000000
765.069458	297.000000
765.106506	295.000000
765.143555	297.000000
765.180481	292.000000
765.217529	316.000000
765.254578	297.000000
765.291504	310.000000
765.328552	304.000000
765.365540	303.000000
765.402527	313.000000
765.439575	307.000000
765.476501	303.000000
765.513550	298.000000
765.550537	298.000000
765.587463	307.000000
765.624512	286.000000
765.661499	275.000000
765.698486	287.000000
765.735474	266.000000
765.772461	269.000000
765.809448	274.000000
765.846436	261.000000
765.883423	262.000000
765.920410	253.000000
765.957397	242.000000
765.994385	243.000000
766.031311	249.000000
766.068359	239.000000
766.105286	228.000000
766.142273	235.000000
766.179260	220.000000
766.216187	217.000000
766.253174	210.000000
766.290161	220.000000
766.327148	222.000000
766.364136	222.000000
766.401123	227.000000
766.438049	209.000000
766.475037	219.000000
766.512024	220.000000
766.548950	225.000000
766.585937	221.000000
766.622864	217.000000
766.659790	211.000000
766.696777	202.000000
766.733704	216.000000
766.770691	207.000000
766.807678	220.000000
766.844604	201.000000
766.881531	207.000000
766.918518	213.000000
766.955444	212.000000
766.992432	203.000000
767.029358	211.000000
767.066284	207.000000
767.103271	204.000000
767.140198	237.000000
767.177124	219.000000
767.214050	210.000000
767.251038	207.000000
767.287964	204.000000
767.324890	203.000000
767.361816	206.000000
767.398743	210.000000
767.435730	200.000000
767.472595	204.000000
767.509583	209.000000
767.546509	201.000000
767.583374	210.000000
767.620361	193.000000
767.657288	201.000000
767.694214	200.000000
767.731140	200.000000
767.768066	202.000000
767.804993	208.000000
767.841919	196.000000
767.878845	209.000000
767.915710	211.000000
767.952698	205.000000
767.989563	210.000000
768.026489	213.000000
768.063416	201.000000
768.100281	204.000000
768.137207	215.000000
768.174133	214.000000
768.211060	216.000000
768.247986	210.000000
768.284912	208.000000
768.321777	209.000000
768.358704	202.000000
768.395630	209.000000
768.432495	201.000000
768.469421	210.000000
768.506348	215.000000
768.543152	218.000000
768.580078	211.000000
768.616943	216.000000
768.653870	215.000000
768.690796	217.000000
768.727661	206.000000
768.764587	214.000000
768.801453	207.000000
768.838318	219.000000
768.875244	218.000000
768.912109	223.000000
768.948975	209.000000
768.985901	213.000000
769.022766	216.000000
769.059631	217.000000
769.096558	211.000000
769.133362	209.000000
769.170288	206.000000
769.207214	205.000000
769.244019	210.000000
769.280945	201.000000
769.317810	218.000000
769.354675	211.000000
769.391541	224.000000
769.428406	216.000000
769.465271	227.000000
769.502136	211.000000
769.539062	218.000000
769.575867	213.000000
769.612732	218.000000
769.649597	227.000000
769.686462	232.000000
769.723328	221.000000
769.760193	223.000000
769.797058	217.000000
769.833923	231.000000
769.870728	224.000000
769.907593	230.000000
769.944519	221.000000
769.981323	228.000000
770.018188	225.000000
770.055054	221.000000
770.091858	222.000000
770.128723	229.000000
770.165588	233.000000
770.202393	221.000000
770.239258	233.000000
770.276062	225.000000
770.312927	221.000000
770.349792	228.000000
770.386597	224.000000
770.423462	236.000000
770.460327	245.000000
770.497131	224.000000
770.533997	224.000000
770.570862	235.000000
770.607605	237.000000
770.644470	232.000000
770.681335	233.000000
770.718140	233.000000
770.754944	231.000000
770.791809	226.000000
770.828613	226.000000
770.865479	230.000000
770.902222	245.000000
770.939087	233.000000
770.975952	227.000000
771.012695	230.000000
771.049561	246.000000
771.086365	232.000000
771.123169	232.000000
771.159973	234.000000
771.196838	234.000000
771.233582	239.000000
771.270447	238.000000
771.307251	243.000000
771.344055	239.000000
771.380859	239.000000
771.417664	239.000000
771.454468	244.000000
771.491272	242.000000
771.528076	247.000000
771.564880	247.000000
771.601685	257.000000
771.638428	245.000000
771.675293	269.000000
771.712097	261.000000
771.748840	286.000000
771.785645	291.000000
771.822449	309.000000
771.859253	330.000000
771.896057	343.000000
771.932861	363.000000
771.969604	370.000000
772.006409	382.000000
772.043213	418.000000
772.079956	427.000000
772.116760	438.000000
772.153503	453.000000
772.190308	488.000000
772.227112	481.000000
772.263855	480.000000
772.300659	506.000000
772.337463	520.000000
772.374207	519.000000
772.411011	530.000000
772.447754	535.000000
772.484497	554.000000
772.521301	543.000000
772.558105	556.000000
772.594849	553.000000
772.631592	564.000000
772.668396	569.000000
772.705139	572.000000
772.741882	560.000000
772.778625	581.000000
772.815430	589.000000
772.852173	585.000000
772.888916	599.000000
772.925720	598.000000
772.962463	607.000000
772.999207	602.000000
773.035950	618.000000
773.072754	620.000000
773.109436	610.000000
773.146240	614.000000
773.182922	607.000000
773.219727	625.000000
773.256470	615.000000
773.293152	615.000000
773.329956	628.000000
773.366699	633.000000
773.403381	611.000000
773.440186	617.000000
773.476929	630.000000
773.513611	627.000000
773.550354	656.000000
773.587158	632.000000
773.623840	625.000000
773.660583	631.000000
773.697327	643.000000
773.734009	641.000000
773.770813	648.000000
773.807495	646.000000
773.844238	639.000000
773.880981	647.000000
773.917664	647.000000
773.954407	668.000000
773.991150	658.000000
774.027832	667.000000
774.064575	649.000000
774.101318	656.000000
774.138000	672.000000
774.174744	674.000000
774.211487	694.000000
774.248108	677.000000
774.284851	675.000000
774.321594	686.000000
774.358276	678.000000
774.395020	701.000000
774.431702	705.000000
774.468384	699.000000
774.505127	687.000000
774.541809	691.000000
774.578491	690.000000
774.615234	703.000000
774.651917	704.000000
774.688599	709.000000
774.725342	722.000000
774.762024	709.000000
774.798706	706.000000
774.835449	705.000000
774.872070	729.000000
774.908813	727.000000
774.945496	734.000000
774.982178	726.000000
775.018860	712.000000
775.055542	718.000000
775.092224	727.000000
775.128967	755.000000
775.165588	748.000000
775.202271	737.000000
775.239014	736.000000
775.275635	744.000000
775.312317	747.000000
775.349060	751.000000
775.385681	766.000000
775.422363	767.000000
775.459045	763.000000
775.495667	755.000000
775.532410	764.000000
775.569092	771.000000
775.605713	773.000000
775.642395	775.000000
775.679016	765.000000
775.715698	756.000000
775.752380	753.000000
775.789001	757.000000
775.825684	773.000000
775.862366	779.000000
775.898987	789.000000
775.935669	760.000000
775.972351	780.000000
776.008972	778.000000
776.045654	782.000000
776.082336	792.000000
776.118958	780.000000
776.155640	785.000000
776.192322	768.000000
776.228882	786.000000
776.265564	798.000000
776.302185	805.000000
776.338867	815.000000
776.375488	797.000000
776.412109	799.000000
776.448792	795.000000
776.485413	814.000000
776.522034	815.000000
776.558716	803.000000
776.595337	810.000000
776.631958	796.000000
776.668579	794.000000
776.705261	816.000000
776.741882	797.000000
776.778503	806.000000
776.815186	803.000000
776.851746	813.000000
776.888367	797.000000
776.924988	809.000000
776.961609	802.000000
776.998291	807.000000
777.034851	806.000000
777.071472	817.000000
777.108154	808.000000
777.144714	820.000000
777.181335	820.000000
777.218018	828.000000
777.254578	831.000000
777.291199	843.000000
777.327759	853.000000
777.364380	854.000000
777.401062	859.000000
777.437622	889.000000
777.474243	878.000000
777.510864	891.000000
777.547424	867.000000
777.584045	869.000000
777.620667	871.000000
777.657227	884.000000
777.693848	879.000000
777.730469	911.000000
777.767029	896.000000
777.803650	895.000000
777.840271	884.000000
777.876831	885.000000
777.913452	896.000000
777.950012	884.000000
777.986633	883.000000
778.023193	875.000000
778.059753	876.000000
778.096375	884.000000
778.132996	888.000000
778.169556	897.000000
778.206116	889.000000
778.242737	892.000000
778.279297	902.000000
778.315857	897.000000
778.352478	903.000000
778.389038	913.000000
778.425598	913.000000
778.462219	941.000000
778.498718	930.000000
778.535339	927.000000
778.571838	935.000000
778.608459	926.000000
778.645020	922.000000
778.681580	919.000000
778.718140	929.000000
778.754761	923.000000
778.791260	927.000000
778.827881	937.000000
778.864441	933.000000
778.900940	939.000000
778.937561	943.000000
778.974121	947.000000
779.010620	948.000000
779.047241	945.000000
779.083801	957.000000
779.120300	978.000000
779.156860	1001.000000
779.193359	985.000000
779.229980	1006.000000
779.266541	1004.000000
779.303040	1011.000000
779.339600	1008.000000
779.376160	1012.000000
779.412659	1014.000000
779.449219	1025.000000
779.485779	1013.000000
779.522278	999.000000
779.558838	1015.000000
779.595398	1027.000000
779.631897	1011.000000
779.668457	1021.000000
779.705017	1021.000000
779.741516	1002.000000
779.778076	984.000000
779.814575	997.000000
779.851074	1005.000000
779.887634	1009.000000
779.924133	1023.000000
779.960693	995.000000
779.997253	1019.000000
780.033691	1025.000000
780.070251	1041.000000
780.106812	1045.000000
780.143250	1047.000000
780.179810	1039.000000
780.216370	1039.000000
780.252808	1045.000000
780.289368	1042.000000
780.325867	1068.000000
780.362366	1093.000000
780.398865	1091.000000
780.435364	1084.000000
780.471863	1087.000000
780.508423	1069.000000
780.544861	1075.000000
780.581421	1089.000000
780.617920	1081.000000
780.654419	1088.000000
780.690918	1085.000000
780.727417	1067.000000
780.763916	1090.000000
780.800415	1118.000000
780.836914	1100.000000
780.873352	1129.000000
780.909912	1119.000000
780.946411	1112.000000
780.982849	1112.000000
781.019348	1129.000000
781.055786	1119.000000
781.092346	1129.000000
781.128845	1124.000000
781.165283	1129.000000
781.201782	1117.000000
781.238281	1135.000000
781.274719	1141.000000
781.311218	1144.000000
781.347717	1172.000000
781.384155	1150.000000
781.420654	1142.000000
781.457092	1153.000000
781.493591	1157.000000
781.530090	1152.000000
781.566528	1164.000000
781.602966	1158.000000
781.639465	1141.000000
781.675903	1117.000000
781.712402	1145.000000
781.748901	1132.000000
781.785278	1125.000000
781.821777	1136.000000
781.858276	1126.000000
781.894714	1133.000000
781.931152	1126.000000
781.967651	1147.000000
782.004089	1124.000000
782.040527	1135.000000
782.076965	1131.000000
782.113403	1113.000000
782.149902	1121.000000
782.186340	1121.000000
782.222778	1139.000000
782.259277	1124.000000
782.295654	1136.000000
782.332092	1148.000000
782.368591	1157.000000
782.404968	1150.000000
782.441467	1170.000000
782.477905	1162.000000
782.514282	1178.000000
782.550781	1193.000000
782.587219	1180.000000
782.623596	1193.000000
782.660095	1206.000000
782.696472	1219.000000
782.732910	1201.000000
782.769348	1207.000000
782.805786	1225.000000
782.842224	1213.000000
782.878662	1221.000000
782.915039	1226.000000
782.951477	1238.000000
782.987915	1231.000000
783.024292	1234.000000
783.060730	1234.000000
783.097168	1225.000000
783.133545	1233.000000
783.169983	1225.000000
783.206421	1213.000000
783.242798	1194.000000
783.279236	1163.000000
783.315613	1187.000000
783.352051	1200.000000
783.388489	1198.000000
783.424866	1180.000000
783.461304	1188.000000
783.497681	1202.000000
783.534058	1188.000000
783.570496	1204.000000
783.606934	1207.000000
783.643250	1205.000000
783.679687	1220.000000
783.716125	1220.000000
783.752441	1212.000000
783.788879	1245.000000
783.825317	1267.000000
783.861633	1259.000000
783.898071	1247.000000
783.934448	1267.000000
783.970825	1277.000000
784.007263	1286.000000
784.043579	1311.000000
784.080017	1314.000000
784.116394	1305.000000
784.152710	1292.000000
784.189148	1303.000000
784.225525	1286.000000
784.261902	1295.000000
784.298279	1281.000000
784.334656	1267.000000
784.371033	1238.000000
784.407410	1242.000000
784.443787	1225.000000
784.480164	1237.000000
784.516541	1235.000000
784.552856	1241.000000
784.589233	1211.000000
784.625610	1197.000000
784.661987	1221.000000
784.698364	1243.000000
784.734741	1256.000000
784.771057	1253.000000
784.807434	1257.000000
784.843811	1264.000000
784.880127	1235.000000
784.916504	1279.000000
784.952881	1335.000000
784.989197	1349.000000
785.025574	1350.000000
785.061951	1352.000000
785.098267	1376.000000
785.134644	1383.000000
785.170959	1404.000000
785.207275	1452.000000
785.243652	1449.000000
785.279968	1436.000000
785.316345	1382.000000
785.352722	1370.000000
785.388977	1382.000000
785.425354	1368.000000
785.461731	1353.000000
785.498047	1340.000000
785.534363	1284.000000
785.570679	1250.000000
785.606995	1228.000000
785.643372	1251.000000
785.679687	1255.000000
785.716003	1244.000000
785.752380	1207.000000
785.788635	1203.000000
785.825012	1223.000000
785.861328	1224.000000
785.897644	1245.000000
785.933960	1299.000000
785.970337	1306.000000
786.006592	1342.000000
786.042908	1343.000000
786.079285	1383.000000
786.115540	1438.000000
786.151855	1475.000000
786.188171	1528.000000
786.224487	1523.000000
786.260803	1553.000000
786.297119	1554.000000
786.333435	1545.000000
786.369751	1545.000000
786.406006	1563.000000
786.442322	1507.000000
786.478638	1486.000000
786.514954	1463.000000
786.551270	1430.000000
786.587585	1404.000000
786.623840	1383.000000
786.660156	1364.000000
786.696472	1329.000000
786.732727	1301.000000
786.769043	1282.000000
786.805298	1261.000000
786.841614	1271.000000
786.877930	1297.000000
786.914124	1299.000000
786.950439	1302.000000
786.986755	1321.000000
787.023010	1325.000000
787.059326	1335.000000
787.095642	1380.000000
787.131836	1420.000000
787.168152	1420.000000
787.204468	1440.000000
787.240723	1457.000000
787.276978	1479.000000
787.313293	1513.000000
787.349548	1535.000000
787.385803	1540.000000
787.422058	1543.000000
787.458313	1525.000000
787.494629	1494.000000
787.530823	1498.000000
787.567139	1490.000000
787.603455	1475.000000
787.639648	1442.000000
787.675903	1444.000000
787.712219	1412.000000
787.748413	1379.000000
787.784729	1370.000000
787.820984	1370.000000
787.857178	1369.000000
787.893494	1370.000000
787.929749	1341.000000
787.965942	1339.000000
788.002258	1349.000000
788.038452	1362.000000
788.074707	1371.000000
788.110962	1373.000000
788.147217	1371.000000
788.183472	1374.000000
788.219727	1368.000000
788.255920	1386.000000
788.292175	1422.000000
788.328430	1453.000000
788.364624	1436.000000
788.400879	1436.000000
788.437134	1438.000000
788.473328	1421.000000
788.509583	1428.000000
788.545837	1447.000000
788.582031	1448.000000
788.618286	1467.000000
788.654480	1448.000000
788.690735	1434.000000
788.726990	1462.000000
788.763184	1465.000000
788.799377	1475.000000
788.835632	1488.000000
788.871826	1512.000000
788.908081	1496.000000
788.944336	1468.000000
788.980469	1475.000000
789.016724	1467.000000
789.052979	1493.000000
789.089111	1479.000000
789.125366	1487.000000
789.161621	1446.000000
789.197754	1439.000000
789.234009	1423.000000
789.270142	1433.000000
789.306396	1428.000000
789.342590	1447.000000
789.378784	1407.000000
789.414978	1395.000000
789.451233	1407.000000
789.487366	1385.000000
789.523621	1416.000000
789.559814	1403.000000
789.595947	1436.000000
789.632202	1425.000000
789.668335	1422.000000
789.704529	1416.000000
789.740784	1452.000000
789.776917	1451.000000
789.813110	1468.000000
789.849304	1491.000000
789.885498	1460.000000
789.921692	1460.000000
789.957886	1459.000000
789.994019	1476.000000
790.030212	1510.000000
790.066406	1524.000000
790.102539	1514.000000
790.138733	1497.000000
790.174927	1463.000000
790.211060	1468.000000
790.247253	1490.000000
790.283386	1499.000000
790.319580	1486.000000
790.355774	1435.000000
790.391907	1319.000000
790.428101	1154.000000
790.464294	943.000000
790.500427	830.000000
790.536621	793.000000
790.572754	865.000000
790.608887	961.000000
790.645081	1016.000000
790.681274	1063.000000
790.717346	1106.000000
790.753540	1135.000000
790.789734	1161.000000
790.825867	1182.000000
790.862000	1183.000000
790.898132	1212.000000
790.934265	1225.000000
790.970459	1242.000000
791.006592	1285.000000
791.042725	1317.000000
791.078918	1292.000000
791.114990	1297.000000
791.151184	1301.000000
791.187317	1342.000000
791.223389	1357.000000
791.259583	1365.000000
791.295715	1361.000000
791.331848	1370.000000
791.367981	1398.000000
791.404114	1389.000000
791.440247	1395.000000
791.476379	1414.000000
791.512451	1406.000000
791.548584	1420.000000
791.584778	1426.000000
791.620850	1410.000000
791.656982	1401.000000
791.693115	1413.000000
791.729187	1435.000000
791.765381	1462.000000
791.801514	1453.000000
791.837585	1434.000000
791.873718	1433.000000
791.909851	1434.000000
791.945923	1466.000000
791.982056	1445.000000
792.018188	1482.000000
792.054260	1459.000000
792.090393	1467.000000
792.126465	1447.000000
792.162598	1454.000000
792.198669	1448.000000
792.234741	1491.000000
792.270874	1453.000000
792.307007	1450.000000
792.343079	1414.000000
792.379150	1423.000000
792.415283	1402.000000
792.451355	1435.000000
792.487488	1428.000000
792.523560	1432.000000
792.559631	1420.000000
792.595764	1383.000000
792.631836	1389.000000
792.667908	1420.000000
792.703979	1415.000000
792.740051	1423.000000
792.776184	1417.000000
792.812256	1380.000000
792.848328	1402.000000
792.884399	1403.000000
792.920471	1422.000000
792.956543	1437.000000
792.992615	1442.000000
793.028748	1430.000000
793.064758	1414.000000
793.100830	1406.000000
793.136963	1409.000000
793.172974	1415.000000
793.209045	1446.000000
793.245178	1437.000000
793.281189	1426.000000
793.317261	1416.000000
793.353271	1391.000000
793.389404	1418.000000
793.425476	1422.000000
793.461487	1417.000000
793.497559	1411.000000
793.533630	1394.000000
793.569641	1367.000000
793.605713	1362.000000
793.641785	1361.000000
793.677795	1373.000000
793.713867	1376.000000
793.749878	1399.000000
793.785950	1406.000000
793.822021	1416.000000
793.858032	1386.000000
793.894104	1391.000000
793.930176	1400.000000
793.966187	1414.000000
794.002258	1405.000000
794.038269	1417.000000
794.074280	1411.000000
794.110352	1419.000000
794.146423	1405.000000
794.182373	1419.000000
794.218445	1419.000000
794.254517	1417.000000
794.290466	1382.000000
794.326538	1367.000000
794.362549	1350.000000
794.398560	1360.000000
794.434631	1370.000000
794.470581	1338.000000
794.506653	1331.000000
794.542664	1330.000000
794.578674	1335.000000
794.614685	1306.000000
794.650757	1302.000000
794.686707	1326.000000
794.722778	1338.000000
794.758789	1331.000000
794.794739	1334.000000
794.830811	1339.000000
794.866821	1354.000000
794.902771	1379.000000
794.938843	1377.000000
794.974792	1367.000000
795.010803	1390.000000
795.046814	1366.000000
795.082825	1345.000000
795.118835	1368.000000
795.154846	1357.000000
795.190796	1371.000000
795.226807	1357.000000
795.262817	1356.000000
795.298767	1335.000000
795.334778	1334.000000
795.370850	1319.000000
795.406799	1328.000000
795.442810	1333.000000
795.478821	1330.000000
795.514709	1296.000000
795.550720	1299.000000
795.586670	1286.000000
795.622681	1281.000000
795.658691	1306.000000
795.694641	1327.000000
795.730652	1331.000000
795.766663	1337.000000
795.802551	1328.000000
795.838562	1339.000000
795.874573	1348.000000
795.910522	1359.000000
795.946472	1368.000000
795.982483	1367.000000
796.018433	1342.000000
796.054382	1316.000000
796.090393	1317.000000
796.126282	1319.000000
796.162292	1293.000000
796.198242	1315.000000
796.234192	1312.000000
796.270203	1261.000000
796.306091	1262.000000
796.342041	1288.000000
796.378052	1290.000000
796.413940	1315.000000
796.449951	1309.000000
796.485901	1293.000000
796.521790	1261.000000
796.557800	1293.000000
796.593689	1297.000000
796.629639	1309.000000
796.665649	1299.000000
796.701599	1300.000000
796.737488	1307.000000
796.773437	1318.000000
796.809387	1310.000000
796.845337	1342.000000
796.881287	1347.000000
796.917175	1347.000000
796.953125	1327.000000
796.989075	1324.000000
797.024963	1297.000000
797.060913	1292.000000
797.096863	1308.000000
797.132751	1328.000000
797.168701	1311.000000
797.204590	1291.000000
797.240540	1259.000000
797.276489	1265.000000
797.312439	1256.000000
797.348328	1277.000000
797.384277	1281.000000
797.420166	1270.000000
797.456055	1259.000000
797.492004	1230.000000
797.527893	1234.000000
797.563843	1234.000000
797.599731	1266.000000
797.635620	1281.000000
797.671570	1293.000000
797.707520	1283.000000
797.743347	1253.000000
797.779297	1245.000000
797.815125	1258.000000
797.851074	1268.000000
797.887024	1289.000000
797.922913	1280.000000
797.958801	1257.000000
797.994690	1233.000000
798.030579	1253.000000
798.066467	1253.000000
798.102356	1252.000000
798.138245	1251.000000
798.174133	1245.000000
798.210083	1233.000000
798.245911	1199.000000
798.281799	1234.000000
798.317749	1229.000000
798.353577	1233.000000
798.389465	1250.000000
798.425293	1220.000000
798.461243	1225.000000
798.497131	1212.000000
798.532959	1217.000000
798.568848	1255.000000
798.604736	1247.000000
798.640564	1221.000000
798.676453	1219.000000
798.712402	1204.000000
798.748230	1188.000000
798.784119	1208.000000
798.820007	1228.000000
798.855835	1234.000000
798.891724	1225.000000
798.927551	1194.000000
798.963379	1172.000000
798.999268	1180.000000
799.035095	1174.000000
799.070984	1176.000000
799.106873	1201.000000
799.142700	1194.000000
799.178528	1173.000000
799.214417	1178.000000
799.250244	1197.000000
799.286133	1184.000000
799.321960	1214.000000
799.357788	1205.000000
799.393677	1173.000000
799.429504	1180.000000
799.465332	1156.000000
799.501221	1186.000000
799.537048	1202.000000
799.572876	1205.000000
799.608704	1205.000000
799.644531	1197.000000
799.680359	1181.000000
799.716248	1187.000000
799.752014	1184.000000
799.787903	1182.000000
799.823730	1184.000000
799.859558	1184.000000
799.895386	1181.000000
799.931213	1150.000000
799.967041	1129.000000
800.002869	1151.000000
800.038696	1176.000000
800.074463	1170.000000
800.110352	1152.000000
800.146179	1125.000000
800.181946	1122.000000
800.217773	1140.000000
800.253540	1123.000000
800.289429	1153.000000
800.325256	1128.000000
800.361023	1101.000000
800.396851	1117.000000
800.432678	1113.000000
800.468445	1117.000000
800.504272	1124.000000
800.540100	1113.000000
800.575867	1107.000000
800.611694	1113.000000
800.647461	1084.000000
800.683289	1073.000000
800.719116	1097.000000
800.754883	1099.000000
800.790649	1078.000000
800.826477	1083.000000
800.862244	1084.000000
800.898071	1053.000000
800.933838	1054.000000
800.969604	1055.000000
801.005432	1068.000000
801.041199	1062.000000
801.076965	1049.000000
801.112793	1020.000000
801.148560	1032.000000
801.184326	1045.000000
801.220154	1030.000000
801.255859	1037.000000
801.291687	1032.000000
801.327454	1007.000000
801.363281	1008.000000
801.398987	1000.000000
801.434814	994.000000
801.470520	1004.000000
801.506287	995.000000
801.542114	991.000000
801.577820	995.000000
801.613647	985.000000
801.649414	979.000000
801.685120	990.000000
801.720886	997.000000
801.756714	977.000000
801.792419	976.000000
801.828186	967.000000
801.863892	961.000000
801.899719	951.000000
801.935486	971.000000
801.971252	982.000000
802.006958	973.000000
802.042725	969.000000
802.078430	944.000000
802.114197	937.000000
802.149963	962.000000
802.185669	971.000000
802.221436	955.000000
802.257202	963.000000
802.292908	948.000000
802.328674	961.000000
802.364441	953.000000
802.400146	951.000000
802.435913	954.000000
802.471558	943.000000
802.507324	936.000000
802.543091	935.000000
802.578796	953.000000
802.614502	950.000000
802.650269	955.000000
802.685974	950.000000
802.721741	962.000000
802.757446	962.000000
802.793152	943.000000
802.828918	941.000000
802.864624	960.000000
802.900330	956.000000
802.936035	948.000000
802.971802	935.000000
803.007446	927.000000
803.043213	913.000000
803.078857	922.000000
803.114624	904.000000
803.150330	910.000000
803.185974	916.000000
803.221741	911.000000
803.257446	908.000000
803.293152	906.000000
803.328857	894.000000
803.364563	895.000000
803.400208	895.000000
803.435974	907.000000
803.471680	883.000000
803.507324	885.000000
803.543030	881.000000
803.578735	885.000000
803.614441	867.000000
803.650146	900.000000
803.685791	873.000000
803.721497	880.000000
803.757202	864.000000
803.792847	857.000000
803.828552	839.000000
803.864258	854.000000
803.899902	843.000000
803.935608	841.000000
803.971313	847.000000
804.006958	842.000000
804.042664	840.000000
804.078308	852.000000
804.113953	837.000000
804.149658	849.000000
804.185364	830.000000
804.221008	841.000000
804.256714	822.000000
804.292297	823.000000
804.328003	807.000000
804.363708	818.000000
804.399292	823.000000
804.434998	818.000000
804.470703	799.000000
804.506287	810.000000
804.541992	796.000000
804.577637	804.000000
804.613281	797.000000
804.648926	797.000000
804.684570	801.000000
804.720215	792.000000
804.755920	795.000000
804.791565	792.000000
804.827209	804.000000
804.862854	793.000000
804.898437	803.000000
804.934143	797.000000
804.969788	795.000000
805.005371	788.000000
805.041077	791.000000
805.076721	786.000000
805.112305	784.000000
805.147949	791.000000
805.183655	778.000000
805.219238	779.000000
805.254883	777.000000
805.290466	787.000000
805.326111	790.000000
805.361755	773.000000
805.397400	789.000000
805.432983	782.000000
805.468628	775.000000
805.504211	771.000000
805.539856	773.000000
805.575500	790.000000
805.611084	774.000000
805.646729	765.000000
805.682373	762.000000
805.717957	772.000000
805.753601	772.000000
805.789246	760.000000
805.824768	769.000000
805.860413	782.000000
805.895996	764.000000
805.931641	761.000000
805.967224	761.000000
806.002869	761.000000
806.038452	749.000000
806.074036	758.000000
806.109619	737.000000
806.145264	747.000000
806.180847	750.000000
806.216431	732.000000
806.252014	731.000000
806.287659	733.000000
806.323181	731.000000
806.358826	736.000000
806.394409	719.000000
806.429993	721.000000
806.465576	726.000000
806.501160	702.000000
806.536743	706.000000
806.572327	725.000000
806.607910	721.000000
806.643494	708.000000
806.679077	699.000000
806.714661	699.000000
806.750244	690.000000
806.785828	687.000000
806.821350	688.000000
806.856934	694.000000
806.892517	685.000000
806.928101	685.000000
806.963684	679.000000
806.999268	682.000000
807.034790	656.000000
807.070374	666.000000
807.105896	661.000000
807.141479	658.000000
807.177063	664.000000
807.212585	640.000000
807.248169	647.000000
807.283752	661.000000
807.319275	644.000000
807.354858	658.000000
807.390381	646.000000
807.425903	642.000000
807.461487	644.000000
807.497070	634.000000
807.532593	642.000000
807.568115	635.000000
807.603699	625.000000
807.639221	612.000000
807.674744	624.000000
807.710266	627.000000
807.745850	634.000000
807.781372	628.000000
807.816895	625.000000
807.852417	619.000000
807.888000	619.000000
807.923523	606.000000
807.959045	617.000000
807.994629	604.000000
808.030090	615.000000
808.065613	623.000000
808.101135	621.000000
808.136658	617.000000
808.172241	609.000000
808.207764	605.000000
808.243225	602.000000
808.278809	592.000000
808.314270	610.000000
808.349792	595.000000
808.385315	596.000000
808.420837	595.000000
808.456360	607.000000
808.491882	593.000000
808.527344	605.000000
808.562866	605.000000
808.598389	594.000000
808.633850	587.000000
808.669434	587.000000
808.704895	592.000000
808.740417	599.000000
808.775940	597.000000
808.811462	592.000000
808.846924	587.000000
808.882385	579.000000
808.917847	576.000000
808.953369	580.000000
808.988892	573.000000
809.024353	577.000000
809.059875	581.000000
809.095398	573.000000
809.130798	567.000000
809.166321	567.000000
809.201843	567.000000
809.237305	565.000000
809.272766	575.000000
809.308228	551.000000
809.343750	558.000000
809.379211	559.000000
809.414734	564.000000
809.450134	560.000000
809.485657	547.000000
809.521118	551.000000
809.556580	542.000000
809.592102	548.000000
809.627502	547.000000
809.663025	536.000000
809.698486	532.000000
809.733887	525.000000
809.769409	529.000000
809.804871	516.000000
809.840271	516.000000
809.875793	522.000000
809.911194	533.000000
809.946655	517.000000
809.982178	514.000000
810.017639	525.000000
810.053040	519.000000
810.088501	518.000000
810.123901	512.000000
810.159424	513.000000
810.194885	501.000000
810.230286	507.000000
810.265747	511.000000
810.301208	495.000000
810.336609	504.000000
810.372070	492.000000
810.407532	505.000000
810.442932	497.000000
810.478394	491.000000
810.513794	500.000000
810.549255	488.000000
810.584717	495.000000
810.620117	476.000000
810.655518	490.000000
810.690979	491.000000
810.726379	494.000000
810.761841	478.000000
810.797302	488.000000
810.832642	469.000000
810.868103	496.000000
810.903564	480.000000
810.938904	488.000000
810.974365	484.000000
811.009827	489.000000
811.045166	475.000000
811.080627	461.000000
811.115967	470.000000
811.151428	475.000000
811.186829	470.000000
811.222229	480.000000
811.257629	467.000000
811.293091	479.000000
811.328430	483.000000
811.363892	465.000000
811.399292	469.000000
811.434631	469.000000
811.470093	464.000000
811.505493	465.000000
811.540833	464.000000
811.576294	476.000000
811.611694	460.000000
811.647034	457.000000
811.682434	461.000000
811.717773	458.000000
811.753235	475.000000
811.788635	464.000000
811.823975	464.000000
811.859375	469.000000
811.894775	453.000000
811.930115	455.000000
811.965515	458.000000
812.000916	458.000000
812.036255	455.000000
812.071655	452.000000
812.106995	446.000000
812.142395	440.000000
812.177795	448.000000
812.213196	450.000000
812.248474	453.000000
812.283875	442.000000
812.319214	441.000000
812.354614	434.000000
812.390015	436.000000
812.425293	438.000000
812.460693	440.000000
812.496094	429.000000
812.531433	425.000000
812.566772	433.000000
812.602173	435.000000
812.637451	425.000000
812.672852	422.000000
812.708191	432.000000
812.743530	417.000000
812.778931	417.000000
812.814270	416.000000
812.849609	423.000000
812.884949	419.000000
812.920227	406.000000
812.955627	426.000000
812.990967	421.000000
813.026306	413.000000
813.061646	401.000000
813.096985	397.000000
813.132324	395.000000
813.167664	396.000000
813.203003	405.000000
813.238281	388.000000
813.273682	387.000000
813.308960	384.000000
813.344299	389.000000
813.379639	391.000000
813.414978	394.000000
813.450256	383.000000
813.485596	391.000000
813.520874	377.000000
813.556213	393.000000
813.591614	381.000000
813.626831	373.000000
813.662170	383.000000
813.697510	390.000000
813.732788	375.000000
813.768127	384.000000
813.803467	379.000000
813.838745	377.000000
813.874084	382.000000
813.909363	379.000000
813.944641	381.000000
813.979980	369.000000
814.015320	373.000000
814.050598	376.000000
814.085876	373.000000
814.121155	370.000000
814.156494	364.000000
814.191772	374.000000
814.227051	360.000000
814.262390	368.000000
814.297668	370.000000
814.332947	372.000000
814.368225	361.000000
814.403564	365.000000
814.438782	359.000000
814.474121	366.000000
814.509338	357.000000
814.544617	369.000000
814.579956	359.000000
814.615173	370.000000
814.650513	362.000000
814.685791	358.000000
814.721008	359.000000
814.756348	361.000000
814.791626	359.000000
814.826843	356.000000
814.862122	355.000000
814.897400	350.000000
814.932678	356.000000
814.967957	350.000000
815.003235	349.000000
815.038452	346.000000
815.073730	340.000000
815.108948	355.000000
815.144226	352.000000
815.179504	353.000000
815.214722	340.000000
815.250000	329.000000
815.285278	339.000000
815.320496	340.000000
815.355774	352.000000
815.391052	343.000000
815.426270	340.000000
815.461487	334.000000
815.496765	336.000000
815.531982	329.000000
815.567261	327.000000
815.602539	337.000000
815.637695	335.000000
815.672974	334.000000
815.708191	335.000000
815.743408	338.000000
815.778687	329.000000
815.813904	345.000000
815.849121	319.000000
815.884399	326.000000
815.919556	321.000000
815.954834	323.000000
815.990051	324.000000
816.025269	335.000000
816.060486	325.000000
816.095703	324.000000
816.130920	323.000000
816.166199	323.000000
816.201416	328.000000
816.236572	324.000000
816.271851	322.000000
816.307007	329.000000
816.342224	303.000000
816.377441	317.000000
816.412659	299.000000
816.447876	321.000000
816.483093	319.000000
816.518250	319.000000
816.553467	304.000000
816.588745	318.000000
816.623901	305.000000
816.659119	298.000000
816.694275	311.000000
816.729492	303.000000
816.764709	334.000000
816.799927	302.000000
816.835083	307.000000
816.870300	298.000000
816.905457	296.000000
816.940674	307.000000
816.975830	296.000000
817.010986	297.000000
817.046204	301.000000
817.081421	293.000000
817.116577	297.000000
817.151733	307.000000
817.186951	303.000000
817.222107	302.000000
817.257324	303.000000
817.292419	300.000000
817.327637	296.000000
817.362854	296.000000
817.398010	291.000000
817.433167	295.000000
817.468323	296.000000
817.503479	296.000000
817.538635	303.000000
817.573853	303.000000
817.608948	293.000000
817.644165	292.000000
817.679321	291.000000
817.714478	296.000000
817.749634	295.000000
817.784790	306.000000
817.819946	296.000000
817.855103	280.000000
817.890198	285.000000
817.925415	279.000000
817.960571	296.000000
817.995667	292.000000
818.030823	292.000000
818.066040	287.000000
818.101135	292.000000
818.136292	286.000000
818.171448	283.000000
818.206543	283.000000
818.241699	291.000000
818.276855	284.000000
818.311951	284.000000
818.347107	279.000000
818.382263	291.000000
818.417358	291.000000
818.452515	292.000000
818.487610	288.000000
818.522766	281.000000
818.557922	293.000000
818.593018	290.000000
818.628113	284.000000
818.663269	277.000000
818.698364	287.000000
818.733521	280.000000
818.768677	277.000000
818.803711	280.000000
818.838867	281.000000
818.874023	280.000000
818.909058	277.000000
818.944214	272.000000
818.979370	278.000000
819.014404	276.000000
819.049561	271.000000
819.084595	278.000000
819.119751	270.000000
819.154846	278.000000
819.189941	274.000000
819.225037	271.000000
819.260193	265.000000
819.295227	267.000000
819.330322	262.000000
819.365479	259.000000
819.400513	291.000000
819.435608	253.000000
819.470764	256.000000
819.505798	259.000000
819.540894	264.000000
819.575989	260.000000
819.611084	269.000000
819.646179	270.000000
819.681213	265.000000
819.716309	258.000000
819.751404	264.000000
819.786438	267.000000
819.821533	255.000000
819.856628	261.000000
819.891663	264.000000
819.926758	265.000000
819.961853	271.000000
819.996887	254.000000
820.031982	267.000000
820.067017	257.000000
820.102112	284.000000
820.137207	257.000000
820.172302	272.000000
820.207275	258.000000
820.242371	253.000000
820.277405	252.000000
820.312500	263.000000
820.347534	256.000000
820.382568	263.000000
820.417664	251.000000
820.452759	252.000000
820.487732	248.000000
820.522827	253.000000
820.557861	248.000000
820.592896	254.000000
820.627930	256.000000
820.662964	252.000000
820.698059	257.000000
820.733093	260.000000
820.768127	257.000000
820.803162	253.000000
820.838196	246.000000
820.873230	255.000000
820.908264	255.000000
820.943298	247.000000
820.978333	258.000000
821.013367	257.000000
821.048401	257.000000
821.083435	257.000000
821.118469	243.000000
821.153503	253.000000
821.188477	249.000000
821.223511	239.000000
821.258484	249.000000
821.293579	250.000000
821.328613	243.000000
821.363647	245.000000
821.398621	238.000000
821.433655	240.000000
821.468628	264.000000
821.503662	242.000000
821.538696	246.000000
821.573669	242.000000
821.608704	246.000000
821.643677	238.000000
821.678650	248.000000
821.713684	248.000000
821.748718	248.000000
821.783691	240.000000
821.818726	239.000000
821.853638	239.000000
821.888672	238.000000
821.923706	239.000000
821.958618	238.000000
821.993652	237.000000
822.028687	244.000000
822.063599	243.000000
822.098633	242.000000
822.133667	233.000000
822.168579	238.000000
822.203613	241.000000
822.238586	235.000000
822.273560	245.000000
822.308533	233.000000
822.343567	234.000000
822.378479	236.000000
822.413452	234.000000
822.448425	226.000000
822.483398	240.000000
822.518372	239.000000
822.553345	229.000000
822.588318	241.000000
822.623291	233.000000
822.658203	229.000000
822.693237	234.000000
822.728210	225.000000
822.763123	235.000000
822.798096	226.000000
822.833069	231.000000
822.867981	224.000000
822.902954	236.000000
822.937927	231.000000
822.972900	236.000000
823.007874	221.000000
823.042725	236.000000
823.077698	237.000000
823.112671	223.000000
823.147583	225.000000
823.182556	230.000000
823.217529	229.000000
823.252441	223.000000
823.287415	241.000000
823.322388	232.000000
823.357239	229.000000
823.392212	234.000000
823.427185	235.000000
823.462097	224.000000
823.497009	227.000000
823.531982	226.000000
823.566895	226.000000
823.601807	226.000000
823.636719	227.000000
823.671631	234.000000
823.706604	224.000000
823.741455	225.000000
823.776428	222.000000
823.811340	227.000000
823.846252	233.000000
823.881165	234.000000
823.916138	229.000000
823.950989	235.000000
823.985901	224.000000
824.020813	225.000000
824.055725	224.000000
824.090637	220.000000
824.125610	225.000000
824.160461	226.000000
824.195374	229.000000
824.230225	224.000000
824.265198	213.000000
824.300110	219.000000
824.334961	240.000000
824.369873	213.000000
824.404785	229.000000
824.439636	223.000000
824.474548	210.000000
824.509460	210.000000
824.544312	225.000000
824.579224	224.000000
824.614075	226.000000
824.648987	217.000000
824.683899	220.000000
824.718811	218.000000
824.753662	230.000000
824.788574	224.000000
824.823364	221.000000
824.858276	218.000000
824.893188	231.000000
824.928040	227.000000
824.962952	221.000000
824.997803	225.000000
825.032654	225.000000
825.067566	217.000000
825.102417	215.000000
825.137268	226.000000
825.172119	218.000000
825.206970	219.000000
825.241882	217.000000
825.276733	216.000000
825.311646	218.000000
825.346436	213.000000
825.381348	213.000000
825.416138	222.000000
825.450989	213.000000
825.485901	210.000000
825.520691	206.000000
825.555542	213.000000
825.590454	212.000000
825.625244	210.000000
825.660095	219.000000
825.695007	224.000000
825.729797	215.000000
825.764648	213.000000
825.799438	208.000000
825.834290	215.000000
825.869202	205.000000
825.903992	216.000000
825.938843	209.000000
825.973694	208.000000
826.008484	224.000000
826.043335	210.000000
826.078186	208.000000
826.112976	218.000000
826.147827	216.000000
826.182678	225.000000
826.217468	202.000000
826.252319	220.000000
826.287109	212.000000
826.321899	224.000000
826.356750	210.000000
826.391541	207.000000
826.426392	213.000000
826.461182	215.000000
826.495972	207.000000
826.530823	204.000000
826.565613	218.000000
826.600403	206.000000
826.635254	213.000000
826.670044	205.000000
826.704834	209.000000
826.739685	205.000000
826.774475	217.000000
826.809265	211.000000
826.844055	213.000000
826.878906	217.000000
826.913635	215.000000
826.948425	213.000000
826.983215	215.000000
827.018005	215.000000
827.052856	213.000000
827.087585	211.000000
827.122375	201.000000
827.157227	206.000000
827.191956	223.000000
827.226746	206.000000
827.261536	213.000000
827.296265	200.000000
827.331116	208.000000
827.365906	212.000000
827.400635	205.000000
827.435425	197.000000
827.470215	214.000000
827.504944	205.000000
827.539734	213.000000
827.574463	203.000000
827.609253	216.000000
827.644043	205.000000
827.678772	210.000000
827.713562	206.000000
827.748352	207.000000
827.783081	195.000000
827.817871	209.000000
827.852600	203.000000
827.887329	205.000000
827.922119	201.000000
827.956848	211.000000
827.991638	215.000000
828.026367	207.000000
828.061157	210.000000
828.095886	205.000000
828.130615	223.000000
828.165344	196.000000
828.200073	206.000000
828.234863	205.000000
828.269592	206.000000
828.304321	210.000000
828.339111	206.000000
828.373779	203.000000
828.408569	211.000000
828.443298	207.000000
828.477966	205.000000
828.512756	203.000000
828.547424	201.000000
828.582214	201.000000
828.616943	202.000000
828.651672	200.000000
828.686340	207.000000
828.721130	198.000000
828.755798	206.000000
828.790527	204.000000
828.825256	207.000000
828.859924	203.000000
828.894714	212.000000
828.929443	207.000000
828.964111	203.000000
828.998840	200.000000
829.033569	198.000000
829.068237	200.000000
829.102966	203.000000
829.137634	201.000000
829.172363	202.000000
829.207092	201.000000
829.241821	199.000000
829.276489	192.000000
829.311157	205.000000
829.345825	200.000000
829.380554	209.000000
829.415283	203.000000
829.449951	196.000000
829.484619	215.000000
829.519348	207.000000
829.554016	199.000000
829.588745	202.000000
829.623413	196.000000
829.658081	214.000000
829.692749	195.000000
829.727417	208.000000
829.762146	202.000000
829.796814	199.000000
829.831482	201.000000
829.866150	203.000000
829.900879	198.000000
829.935486	208.000000
829.970154	198.000000
830.004883	212.000000
830.039490	201.000000
830.074219	196.000000
830.108887	204.000000
830.143494	197.000000
830.178223	191.000000
830.212891	195.000000
830.247498	200.000000
830.282166	206.000000
830.316772	208.000000
830.351501	195.000000
830.386169	198.000000
830.420776	198.000000
830.455444	206.000000
830.490112	193.000000
830.524719	193.000000
830.559387	204.000000
830.594055	198.000000
830.628662	198.000000
830.663330	202.000000
830.697998	205.000000
830.732605	200.000000
830.767273	206.000000
830.801941	201.000000
830.836487	212.000000
830.871155	202.000000
830.905762	201.000000
830.940430	197.000000
830.975098	199.000000
831.009644	198.000000
831.044312	206.000000
831.078979	204.000000
831.113525	191.000000
831.148193	205.000000
831.182861	198.000000
831.217407	205.000000
831.252075	220.000000
831.286621	195.000000
831.321289	197.000000
831.355896	196.000000
831.390564	210.000000
831.425110	195.000000
831.459778	212.000000
831.494324	213.000000
831.528931	205.000000
831.563599	205.000000
831.598145	193.000000
831.632751	200.000000
831.667419	197.000000
831.701965	204.000000
831.736572	205.000000
831.771179	191.000000
831.805786	197.000000
831.840393	201.000000
831.874939	189.000000
831.909546	205.000000
831.944153	193.000000
831.978760	196.000000
832.013306	195.000000
832.047913	205.000000
832.082458	214.000000
832.117065	193.000000
832.151672	205.000000
832.186218	197.000000
832.220825	204.000000
832.255432	188.000000
832.289978	196.000000
832.324585	204.000000
832.359192	204.000000
832.393677	198.000000
832.428284	204.000000
832.462830	200.000000
832.497437	199.000000
832.531982	203.000000
832.566589	200.000000
832.601135	204.000000
832.635681	190.000000
832.670227	197.000000
832.704773	210.000000
832.739380	201.000000
832.773926	202.000000
832.808472	199.000000
832.843079	198.000000
832.877563	204.000000
832.912170	197.000000
832.946716	194.000000
832.981201	204.000000
833.015808	203.000000
833.050293	201.000000
833.084839	193.000000
833.119446	193.000000
833.153992	205.000000
833.188477	200.000000
833.223022	196.000000
833.257568	200.000000
833.292114	209.000000
833.326660	212.000000
833.361145	202.000000
833.395691	188.000000
833.430237	201.000000
833.464783	204.000000
833.499329	198.000000
833.533875	194.000000
833.568359	201.000000
833.602905	202.000000
833.637390	204.000000
833.671875	197.000000
833.706421	199.000000
833.740906	197.000000
833.775452	194.000000
833.809998	192.000000
833.844482	209.000000
833.879028	197.000000
833.913513	197.000000
833.947998	204.000000
833.982544	196.000000
834.017090	202.000000
834.051514	190.000000
834.086060	203.000000
834.120544	199.000000
834.155029	205.000000
834.189575	197.000000
834.223999	202.000000
834.258545	202.000000
834.293030	203.000000
834.327515	199.000000
834.362000	199.000000
834.396545	203.000000
834.430969	199.000000
834.465454	202.000000
834.500000	190.000000
834.534424	200.000000
834.568970	194.000000
834.603455	189.000000
834.637878	195.000000
834.672363	198.000000
834.706909	206.000000
834.741333	200.000000
834.775818	189.000000
834.810242	191.000000
834.844727	197.000000
834.879211	194.000000
834.913635	202.000000
834.948181	197.000000
834.982666	204.000000
835.017090	198.000000
835.051575	199.000000
835.086060	199.000000
835.120483	208.000000
835.154907	198.000000
835.189331	202.000000
835.223816	204.000000
835.258301	191.000000
835.292786	192.000000
835.327209	209.000000
835.361694	193.000000
835.396057	199.000000
835.430542	201.000000
835.465027	199.000000
835.499390	196.000000
835.533875	220.000000
835.568359	195.000000
835.602722	191.000000
835.637207	201.000000
835.671692	190.000000
835.706055	217.000000
835.740540	202.000000
835.774902	204.000000
835.809387	200.000000
835.843811	195.000000
835.878235	203.000000
835.912659	200.000000
835.947083	196.000000
835.981506	201.000000
836.015930	187.000000
836.050354	203.000000
836.084778	206.000000
836.119202	203.000000
836.153625	212.000000
836.187988	195.000000
836.222473	195.000000
836.256897	202.000000
836.291260	197.000000
836.325684	197.000000
836.360046	196.000000
836.394470	199.000000
836.428894	205.000000
836.463318	197.000000
836.497681	200.000000
836.532104	207.000000
836.566467	200.000000
836.600891	200.000000
836.635315	207.000000
836.669678	203.000000
836.704102	201.000000
836.738525	199.000000
836.772888	191.000000
836.807251	196.000000
836.841675	203.000000
836.876038	197.000000
836.910461	196.000000
836.944763	202.000000
836.979187	200.000000
837.013611	208.000000
837.047974	196.000000
837.082336	210.000000
837.116699	202.000000
837.151062	199.000000
837.185486	195.000000
837.219849	200.000000
837.254211	203.000000
837.288574	195.000000
837.322937	194.000000
837.357300	185.000000
837.391663	210.000000
837.426086	200.000000
837.460388	204.000000
837.494751	206.000000
837.529114	198.000000
837.563477	202.000000
837.597839	201.000000
837.632141	196.000000
837.666565	200.000000
837.700928	197.000000
837.735229	202.000000
837.769592	204.000000
837.803955	206.000000
837.838257	193.000000
837.872620	195.000000
837.906982	206.000000
837.941284	198.000000
837.975647	203.000000
838.010010	206.000000
838.044312	193.000000
838.078674	202.000000
838.112976	201.000000
838.147339	202.000000
838.181702	197.000000
838.216003	213.000000
838.250366	201.000000
838.284668	204.000000
838.318970	194.000000
838.353333	201.000000
838.387634	200.000000
838.421936	198.000000
838.456299	204.000000
838.490601	207.000000
838.524902	210.000000
838.559265	203.000000
838.593567	207.000000
838.627869	193.000000
838.662170	201.000000
838.696472	196.000000
838.730774	196.000000
838.765137	199.000000
838.799377	186.000000
838.833740	198.000000
838.868042	207.000000
838.902283	188.000000
838.936646	206.000000
838.970947	201.000000
839.005188	206.000000
839.039551	193.000000
839.073792	206.000000
839.108093	195.000000
839.142395	209.000000
839.176697	187.000000
839.210937	201.000000
839.245300	211.000000
839.279541	187.000000
839.313843	196.000000
839.348145	200.000000
839.382385	200.000000
839.416687	208.000000
839.450989	203.000000
839.485229	197.000000
839.519531	196.000000
839.553833	203.000000
839.588013	198.000000
839.622314	201.000000
839.656555	206.000000
839.690857	196.000000
839.725159	195.000000
839.759460	201.000000
839.793640	193.000000
839.827942	197.000000
839.862183	198.000000
839.896423	200.000000
839.930725	211.000000
839.964966	200.000000
839.999207	206.000000
840.033508	204.000000
840.067688	200.000000
840.101990	207.000000
840.136230	201.000000
840.170471	212.000000
840.204712	195.000000
840.238953	198.000000
840.273193	206.000000
840.307434	199.000000
840.341736	200.000000
840.375916	192.000000
840.410217	195.000000
840.444397	201.000000
840.478638	203.000000
840.512878	202.000000
840.547119	203.000000
840.581360	201.000000
840.615601	209.000000
840.649780	207.000000
840.684021	200.000000
840.718262	202.000000
840.752441	211.000000
840.786682	197.000000
840.820862	201.000000
840.855103	208.000000
840.889343	203.000000
840.923584	199.000000
840.957764	201.000000
840.992004	202.000000
841.026184	213.000000
841.060425	199.000000
841.094666	193.000000
841.128845	203.000000
841.163025	203.000000
841.197266	205.000000
841.231445	203.000000
841.265686	200.000000
841.299866	199.000000
841.334045	205.000000
841.368286	200.000000
841.402405	212.000000
841.436646	202.000000
841.470825	194.000000
841.505005	201.000000
841.539185	193.000000
841.573425	195.000000
841.607544	201.000000
841.641785	201.000000
841.675964	195.000000
841.710144	201.000000
841.744324	199.000000
841.778503	197.000000
841.812683	195.000000
841.846863	205.000000
841.881042	207.000000
841.915222	194.000000
841.949402	218.000000
841.983521	189.000000
842.017700	204.000000
842.051880	196.000000
842.086060	201.000000
842.120239	200.000000
842.154419	195.000000
842.188538	198.000000
842.222717	196.000000
842.256897	209.000000
842.291016	199.000000
842.325195	203.000000
842.359375	211.000000
842.393494	206.000000
842.427673	203.000000
842.461853	202.000000
842.495911	211.000000
842.530090	200.000000
842.564209	198.000000
842.598389	200.000000
842.632568	205.000000
842.666626	201.000000
842.700806	198.000000
842.734985	202.000000
842.769043	202.000000
842.803223	202.000000
842.837402	199.000000
842.871460	198.000000
842.905640	208.000000
842.939697	200.000000
842.973877	202.000000
843.007996	207.000000
843.042175	205.000000
843.076233	197.000000
843.110413	200.000000
843.144470	213.000000
843.178589	203.000000
843.212769	201.000000
843.246826	202.000000
843.280945	202.000000
843.315125	199.000000
843.349182	195.000000
843.383301	204.000000
843.417419	213.000000
843.451538	203.000000
843.485657	201.000000
843.519714	197.000000
843.553833	204.000000
843.587952	196.000000
843.622070	198.000000
843.656128	201.000000
843.690247	193.000000
843.724304	201.000000
843.758423	203.000000
843.792542	196.000000
843.826599	204.000000
843.860718	200.000000
843.894836	194.000000
843.928894	201.000000
843.963013	205.000000
843.997070	194.000000
844.031128	194.000000
844.065247	207.000000
844.099304	205.000000
844.133362	201.000000
844.167480	208.000000
844.201599	207.000000
844.235596	206.000000
844.269714	203.000000
844.303711	206.000000
844.337830	193.000000
844.371948	203.000000
844.405945	197.000000
844.440063	193.000000
844.474121	216.000000
844.508118	197.000000
844.542236	201.000000
844.576294	198.000000
844.610352	196.000000
844.644409	195.000000
844.678406	194.000000
844.712524	202.000000
844.746582	210.000000
844.780640	199.000000
844.814636	201.000000
844.848755	211.000000
844.882751	198.000000
844.916809	201.000000
844.950867	205.000000
844.984863	209.000000
845.018921	200.000000
845.052979	195.000000
845.086975	200.000000
845.121033	192.000000
845.155090	200.000000
845.189087	206.000000
845.223145	198.000000
845.257141	201.000000
845.291199	206.000000
845.325256	208.000000
845.359253	204.000000
845.393250	214.000000
845.427307	202.000000
845.461304	202.000000
845.495361	203.000000
845.529358	212.000000
845.563354	195.000000
845.597412	196.000000
845.631409	208.000000
845.665405	210.000000
845.699463	204.000000
845.733459	201.000000
845.767456	210.000000
845.801453	200.000000
845.835449	206.000000
845.869446	209.000000
845.903503	203.000000
845.937439	195.000000
845.971497	208.000000
846.005493	193.000000
846.039429	201.000000
846.073486	209.000000
846.107483	196.000000
846.141418	201.000000
846.175476	198.000000
846.209473	210.000000
846.243408	192.000000
846.277405	209.000000
846.311401	194.000000
846.345337	203.000000
846.379395	205.000000
846.413330	201.000000
846.447327	205.000000
846.481323	198.000000
846.515259	201.000000
846.549255	200.000000
846.583252	205.000000
846.617187	196.000000
846.651184	200.000000
846.685120	200.000000
846.719055	207.000000
846.753052	204.000000
846.786987	208.000000
846.820984	192.000000
846.854980	207.000000
846.888916	196.000000
846.922852	205.000000
846.956848	208.000000
846.990723	197.000000
847.024719	203.000000
847.058716	196.000000
847.092590	213.000000
847.126587	205.000000
847.160522	197.000000
847.194458	210.000000
847.228455	194.000000
847.262390	194.000000
847.296265	196.000000
847.330261	210.000000
847.364136	199.000000
847.398132	197.000000
847.432068	195.000000
847.466003	199.000000
847.499939	199.000000
847.533875	207.000000
847.567749	190.000000
847.601746	199.000000
847.635681	206.000000
847.669556	190.000000
847.703491	205.000000
847.737427	220.000000
847.771301	191.000000
847.805237	204.000000
847.839233	201.000000
847.873108	201.000000
847.907043	198.000000
847.940918	205.000000
847.974854	197.000000
848.008789	206.000000
848.042664	203.000000
848.076538	205.000000
848.110474	200.000000
848.144348	207.000000
848.178284	194.000000
848.212219	203.000000
848.246094	200.000000
848.279968	201.000000
848.313904	205.000000
848.347778	202.000000
848.381653	196.000000
848.415588	197.000000
848.449463	199.000000
848.483337	200.000000
848.517212	211.000000
848.551086	201.000000
848.585022	195.000000
848.618835	209.000000
848.652771	202.000000
848.686646	200.000000
848.720520	214.000000
848.754395	199.000000
848.788330	206.000000
848.822144	208.000000
848.856018	203.000000
848.889954	208.000000
848.923767	200.000000
848.957642	195.000000
848.991577	206.000000
849.025391	195.000000
849.059265	195.000000
849.093079	196.000000
849.126953	194.000000
849.160828	207.000000
849.194641	200.000000
849.228577	195.000000
849.262451	199.000000
849.296265	193.000000
849.330139	197.000000
849.364014	199.000000
849.397827	206.000000
849.431702	199.000000
849.465515	207.000000
849.499329	187.000000
849.533203	197.000000
849.567078	191.000000
849.600891	201.000000
849.634766	200.000000
849.668518	207.000000
849.702393	196.000000
849.736267	199.000000
849.770020	215.000000
849.803894	207.000000
849.837769	203.000000
849.871521	200.000000
849.905396	211.000000
849.939270	196.000000
849.973022	204.000000
850.006897	204.000000
850.040710	207.000000
850.074524	205.000000
850.108337	201.000000
850.142151	206.000000
850.175964	207.000000
850.209778	198.000000
850.243530	191.000000
850.277405	203.000000
850.311218	203.000000
850.344971	194.000000
850.378845	213.000000
850.412659	190.000000
850.446411	204.000000
850.480225	198.000000
850.514038	209.000000
850.547791	200.000000
850.581665	203.000000
850.615417	198.000000
850.649231	203.000000
850.683044	199.000000
850.716858	199.000000
850.750610	199.000000
850.784424	203.000000
850.818176	194.000000
850.851929	195.000000
850.885742	195.000000
850.919495	198.000000
850.953308	207.000000
850.987122	211.000000
851.020874	195.000000
851.054626	191.000000
851.088440	205.000000
851.122192	203.000000
851.156006	201.000000
851.189697	199.000000
851.223511	193.000000
851.257263	209.000000
851.291077	205.000000
851.324829	199.000000
851.358582	201.000000
851.392334	201.000000
851.426086	202.000000
851.459900	211.000000
851.493591	201.000000
851.527344	201.000000
851.561157	206.000000
851.594849	205.000000
851.628662	205.000000
851.662415	205.000000
851.696106	204.000000
851.729858	199.000000
851.763611	197.000000
851.797363	200.000000
851.831116	195.000000
851.864868	205.000000
851.898560	207.000000
851.932312	196.000000
851.966064	208.000000
851.999817	197.000000
852.033569	200.000000
852.067261	204.000000
852.101013	194.000000
852.134766	193.000000
852.168457	189.000000
852.202209	203.000000
852.235901	191.000000
852.269592	204.000000
852.303345	209.000000
852.337036	201.000000
852.370789	204.000000
852.404541	203.000000
852.438171	196.000000
852.471924	201.000000
852.505676	197.000000
852.539307	201.000000
852.573059	200.000000
852.606812	201.000000
852.640442	200.000000
852.674194	202.000000
852.707886	214.000000
852.741577	206.000000
852.775269	195.000000
852.809021	204.000000
852.842651	203.000000
852.876404	209.000000
852.910034	199.000000
852.943787	208.000000
852.977478	207.000000
853.011108	202.000000
853.044861	201.000000
853.078552	209.000000
853.112183	201.000000
853.145874	201.000000
853.179626	192.000000
853.213257	204.000000
853.246948	198.000000
853.280640	210.000000
853.314270	197.000000
853.347961	207.000000
853.381653	200.000000
853.415283	203.000000
853.448975	197.000000
853.482605	208.000000
853.516296	195.000000
853.549988	193.000000
853.583618	197.000000
853.617310	198.000000
853.651001	198.000000
853.684631	202.000000
853.718323	196.000000
853.751953	209.000000
853.785583	191.000000
853.819275	207.000000
853.852966	201.000000
853.886536	197.000000
853.920227	201.000000
853.953918	201.000000
853.987488	199.000000
854.021179	205.000000
854.054749	206.000000
854.088440	208.000000
854.122131	197.000000
854.155701	207.000000
854.189331	198.000000
854.223022	203.000000
854.256592	203.000000
854.290283	200.000000
854.323914	203.000000
854.357483	204.000000
854.391174	205.000000
854.424744	209.000000
854.458374	203.000000
854.492065	212.000000
854.525696	199.000000
854.559265	207.000000
854.592896	215.000000
854.626465	204.000000
854.660095	202.000000
854.693787	203.000000
854.727356	203.000000
854.760986	205.000000
854.794617	205.000000
854.828186	197.000000
854.861816	205.000000
854.895447	201.000000
854.929016	201.000000
854.962585	200.000000
854.996155	209.000000
855.029785	205.000000
855.063416	205.000000
855.097046	208.000000
855.130615	198.000000
855.164185	203.000000
855.197754	201.000000
855.231384	208.000000
855.264954	198.000000
855.298523	206.000000
855.332153	202.000000
855.365723	206.000000
855.399292	199.000000
855.432922	202.000000
855.466492	204.000000
855.500061	194.000000
855.533630	197.000000
855.567200	206.000000
855.600769	207.000000
855.634338	206.000000
855.667969	204.000000
855.701477	198.000000
855.735046	196.000000
855.768616	190.000000
855.802185	202.000000
855.835754	222.000000
855.869324	193.000000
855.902893	204.000000
855.936401	207.000000
855.969971	203.000000
856.003540	196.000000
856.037109	205.000000
856.070618	199.000000
856.104187	195.000000
856.137695	197.000000
856.171265	193.000000
856.204834	199.000000
856.238403	207.000000
856.271912	194.000000
856.305481	201.000000
856.338989	192.000000
856.372559	204.000000
856.406128	202.000000
856.439636	207.000000
856.473145	193.000000
856.506653	207.000000
856.540222	198.000000
856.573792	211.000000
856.607300	201.000000
856.640808	197.000000
856.674377	198.000000
856.707825	233.000000
856.741394	205.000000
856.774902	196.000000
856.808472	195.000000
856.841980	207.000000
856.875488	208.000000
856.908936	200.000000
856.942505	205.000000
856.976013	199.000000
857.009521	199.000000
857.043030	201.000000
857.076477	197.000000
857.110046	206.000000
857.143555	204.000000
857.177063	202.000000
857.210571	203.000000
857.244080	196.000000
857.277527	203.000000
857.311035	205.000000
857.344543	207.000000
857.378052	201.000000
857.411499	207.000000
857.445068	211.000000
857.478516	201.000000
857.512024	195.000000
857.545532	197.000000
857.578979	200.000000
857.612427	199.000000
857.645874	193.000000
857.679382	200.000000
857.712891	205.000000
857.746399	199.000000
857.779846	201.000000
857.813354	206.000000
857.846741	197.000000
857.880249	195.000000
857.913757	201.000000
857.947266	202.000000
857.980652	196.000000
858.014160	196.000000
858.047546	199.000000
858.081055	199.000000
858.114563	208.000000
858.147949	193.000000
858.181458	199.000000
858.214844	203.000000
858.248352	191.000000
858.281799	207.000000
858.315308	214.000000
858.348694	208.000000
858.382141	207.000000
858.415588	202.000000
858.449036	207.000000
858.482483	203.000000
858.515930	201.000000
858.549377	200.000000
858.582825	209.000000
858.616211	209.000000
858.649658	204.000000
858.683105	199.000000
858.716553	202.000000
858.750000	197.000000
858.783386	195.000000
858.816833	195.000000
858.850281	206.000000
858.883728	206.000000
858.917114	202.000000
858.950562	207.000000
858.983948	213.000000
859.017395	203.000000
859.050781	201.000000
859.084167	190.000000
859.117615	197.000000
859.151062	201.000000
859.184448	199.000000
859.217834	199.000000
859.251282	199.000000
859.284668	189.000000
859.318054	193.000000
859.351440	196.000000
859.384888	209.000000
859.418274	192.000000
859.451721	194.000000
859.485046	199.000000
859.518494	202.000000
859.551819	202.000000
859.585266	202.000000
859.618652	203.000000
859.652039	199.000000
859.685425	195.000000
859.718811	198.000000
859.752197	189.000000
859.785583	211.000000
859.819031	212.000000
859.852356	211.000000
859.885742	194.000000
859.919067	199.000000
859.952454	201.000000
859.985901	204.000000
860.019287	200.000000
860.052612	0.000000
860.085999	0.000000
860.119324	0.000000
860.152710	0.000000
860.186096	0.000000
860.219421	0.000000
860.252808	0.000000
860.286133	0.000000
860.319519	0.000000
860.352905	0.000000
860.386292	0.000000
860.419617	0.000000
860.452942	0.000000
860.486267	0.000000
860.519653	0.000000
860.553040	0.000000
860.586365	0.000000
860.619690	0.000000
860.653076	0.000000
860.686340	0.000000
860.719727	0.000000
860.753113	0.000000
860.786377	0.000000
860.819763	0.000000
860.853027	0.000000
860.886414	0.000000
860.919739	0.000000
860.953125	0.000000
860.986389	0.000000
861.019714	0.000000
861.053040	0.000000
861.086365	0.000000
861.119690	0.000000
861.153076	0.000000
861.186340	0.000000
861.219666	0.000000
861.252930	0.000000
861.286316	0.000000
861.319641	0.000000
861.352905	0.000000
861.386230	0.000000
861.419495	0.000000
861.452820	0.000000
861.486145	0.000000
861.519470	0.000000
861.552734	0.000000
861.586060	0.000000
861.619324	0.000000
861.652649	0.000000
861.685974	0.000000
861.719238	0.000000
861.752563	0.000000
861.785828	0.000000
861.819092	0.000000
861.852417	0.000000
861.885742	0.000000
861.918945	0.000000
861.952271	0.000000
861.985535	0.000000
862.018799	0.000000
862.052124	0.000000
862.085449	0.000000
862.118652	0.000000
862.151978	0.000000
862.185181	0.000000
862.218506	0.000000
862.251770	0.000000
862.285034	0.000000
862.318298	0.000000
862.351562	0.000000
862.384827	0.000000
862.418091	0.000000
862.451355	0.000000
862.484619	0.000000
862.517883	0.000000
862.551086	0.000000
862.584351	0.000000
862.617676	0.000000
862.650940	0.000000
862.684143	0.000000
862.717407	0.000000
862.750610	0.000000
862.783875	0.000000
862.817139	0.000000
862.850342	0.000000
862.883606	0.000000
862.916870	0.000000
862.950073	0.000000
862.983337	0.000000
863.016602	0.000000
863.049805	0.000000
863.083069	0.000000
863.116211	0.000000
863.149475	0.000000
863.182739	0.000000
863.216003	0.000000
863.249146	0.000000
863.282410	0.000000
863.315613	0.000000
863.348816	0.000000
863.382080	0.000000
863.415222	0.000000
863.448486	0.000000
863.481689	0.000000
863.514893	0.000000
863.548157	0.000000
863.581360	0.000000
863.614502	0.000000
863.647766	0.000000
863.680908	0.000000
863.714172	0.000000
863.747375	0.000000
863.780579	0.000000
863.813721	0.000000
863.846985	0.000000
863.880127	0.000000
863.913330	0.000000
863.946533	0.000000
863.979675	0.000000
864.012939	0.000000
