Model Number: SPM-001-M   
Serial Number: 10090201
Firmware Version: 004.17.6
Exposure Time: 500000.000000us
Data Taken on: 17-08-2020 11:15:33.697
Wavelength	Amplitude
733.770752	0.000000
733.808716	0.000000
733.846619	0.000000
733.884583	0.000000
733.922546	0.000000
733.960449	0.000000
733.998413	0.000000
734.036377	0.000000
734.074219	0.000000
734.112183	0.000000
734.150085	0.000000
734.188049	0.000000
734.226013	0.000000
734.263916	0.000000
734.301819	0.000000
734.339783	0.000000
734.377686	0.000000
734.415588	0.000000
734.453552	0.000000
734.491455	0.000000
734.529419	0.000000
734.567322	0.000000
734.605225	0.000000
734.643127	0.000000
734.681091	0.000000
734.718994	0.000000
734.756897	0.000000
734.794800	0.000000
734.832703	0.000000
734.870667	0.000000
734.908508	0.000000
734.946472	0.000000
734.984375	0.000000
735.022278	0.000000
735.060181	0.000000
735.098083	0.000000
735.135986	0.000000
735.173889	0.000000
735.211792	0.000000
735.249695	0.000000
735.287598	0.000000
735.325439	0.000000
735.363403	0.000000
735.401306	0.000000
735.439148	0.000000
735.477051	0.000000
735.515015	0.000000
735.552856	0.000000
735.590759	0.000000
735.628662	0.000000
735.666504	0.000000
735.704407	0.000000
735.742310	0.000000
735.780212	0.000000
735.818115	0.000000
735.856018	0.000000
735.893860	0.000000
735.931763	0.000000
735.969604	0.000000
736.007507	0.000000
736.045410	0.000000
736.083252	0.000000
736.121094	0.000000
736.158997	0.000000
736.196838	0.000000
736.234741	0.000000
736.272644	0.000000
736.310486	0.000000
736.348389	0.000000
736.386230	0.000000
736.424072	0.000000
736.461975	0.000000
736.499878	0.000000
736.537720	0.000000
736.575562	0.000000
736.613403	0.000000
736.651306	0.000000
736.689148	0.000000
736.726990	0.000000
736.764893	0.000000
736.802734	0.000000
736.840576	0.000000
736.878418	0.000000
736.916321	0.000000
736.954102	0.000000
736.992004	0.000000
737.029846	0.000000
737.067688	0.000000
737.105530	0.000000
737.143372	0.000000
737.181213	0.000000
737.219116	0.000000
737.256897	0.000000
737.294739	0.000000
737.332642	0.000000
737.370422	0.000000
737.408325	0.000000
737.446167	0.000000
737.483948	0.000000
737.521790	0.000000
737.559692	0.000000
737.597473	0.000000
737.635315	0.000000
737.673157	0.000000
737.710999	0.000000
737.748840	0.000000
737.786621	0.000000
737.824463	0.000000
737.862305	0.000000
737.900085	0.000000
737.937927	0.000000
737.975769	0.000000
738.013550	0.000000
738.051392	0.000000
738.089233	0.000000
738.127014	0.000000
738.164856	0.000000
738.202698	0.000000
738.240479	0.000000
738.278320	0.000000
738.316162	0.000000
738.353943	0.000000
738.391785	0.000000
738.429565	0.000000
738.467407	0.000000
738.505188	0.000000
738.542969	0.000000
738.580811	0.000000
738.618652	0.000000
738.656372	0.000000
738.694214	0.000000
738.732056	0.000000
738.769836	0.000000
738.807617	0.000000
738.845459	0.000000
738.883240	0.000000
738.921021	0.000000
738.958862	0.000000
738.996582	0.000000
739.034424	0.000000
739.072205	0.000000
739.109985	0.000000
739.147827	0.000000
739.185547	0.000000
739.223389	0.000000
739.261169	0.000000
739.298889	0.000000
739.336731	0.000000
739.374512	0.000000
739.412292	0.000000
739.450073	0.000000
739.487854	0.000000
739.525635	0.000000
739.563416	0.000000
739.601135	0.000000
739.638977	0.000000
739.676758	0.000000
739.714478	0.000000
739.752258	0.000000
739.790100	0.000000
739.827820	0.000000
739.865601	0.000000
739.903381	0.000000
739.941101	0.000000
739.978882	204.000000
740.016724	202.000000
740.054443	201.000000
740.092224	198.000000
740.130005	201.000000
740.167725	197.000000
740.205505	200.000000
740.243225	207.000000
740.281006	199.000000
740.318787	196.000000
740.356506	207.000000
740.394287	204.000000
740.432068	199.000000
740.469727	199.000000
740.507507	202.000000
740.545288	203.000000
740.583008	206.000000
740.620789	203.000000
740.658569	196.000000
740.696228	199.000000
740.734009	207.000000
740.771790	194.000000
740.809509	199.000000
740.847229	195.000000
740.884949	195.000000
740.922729	194.000000
740.960449	197.000000
740.998169	195.000000
741.035950	195.000000
741.073669	201.000000
741.111389	198.000000
741.149170	213.000000
741.186890	209.000000
741.224609	206.000000
741.262329	202.000000
741.300110	212.000000
741.337769	193.000000
741.375549	195.000000
741.413208	196.000000
741.450989	198.000000
741.488708	196.000000
741.526367	197.000000
741.564148	204.000000
741.601868	206.000000
741.639526	195.000000
741.677307	200.000000
741.715027	205.000000
741.752686	198.000000
741.790466	212.000000
741.828186	208.000000
741.865845	192.000000
741.903564	192.000000
741.941345	201.000000
741.979004	197.000000
742.016724	205.000000
742.054382	202.000000
742.092102	207.000000
742.129822	196.000000
742.167480	202.000000
742.205200	199.000000
742.242920	204.000000
742.280640	205.000000
742.318359	196.000000
742.356079	194.000000
742.393738	209.000000
742.431396	198.000000
742.469116	207.000000
742.506775	191.000000
742.544495	202.000000
742.582214	203.000000
742.619873	200.000000
742.657593	206.000000
742.695251	205.000000
742.732971	197.000000
742.770630	199.000000
742.808289	197.000000
742.846008	204.000000
742.883728	200.000000
742.921326	200.000000
742.959045	195.000000
742.996765	198.000000
743.034424	203.000000
743.072083	197.000000
743.109802	199.000000
743.147400	196.000000
743.185120	198.000000
743.222839	198.000000
743.260437	206.000000
743.298157	204.000000
743.335754	189.000000
743.373474	204.000000
743.411133	196.000000
743.448792	201.000000
743.486450	202.000000
743.524170	193.000000
743.561768	200.000000
743.599487	210.000000
743.637146	216.000000
743.674744	198.000000
743.712463	200.000000
743.750122	200.000000
743.787720	204.000000
743.825439	198.000000
743.863037	196.000000
743.900696	198.000000
743.938416	223.000000
743.976013	197.000000
744.013672	209.000000
744.051331	207.000000
744.088928	212.000000
744.126587	203.000000
744.164307	204.000000
744.201904	196.000000
744.239563	202.000000
744.277222	198.000000
744.314819	200.000000
744.352478	211.000000
744.390137	204.000000
744.427734	200.000000
744.465393	197.000000
744.502991	191.000000
744.540649	208.000000
744.578308	197.000000
744.615906	196.000000
744.653564	191.000000
744.691223	205.000000
744.728821	195.000000
744.766418	199.000000
744.804077	203.000000
744.841675	201.000000
744.879333	196.000000
744.916992	200.000000
744.954529	200.000000
744.992187	209.000000
745.029785	194.000000
745.067444	199.000000
745.105042	205.000000
745.142639	203.000000
745.180298	207.000000
745.217896	202.000000
745.255493	202.000000
745.293152	211.000000
745.330750	204.000000
745.368347	208.000000
745.405945	204.000000
745.443604	198.000000
745.481140	205.000000
745.518799	198.000000
745.556396	210.000000
745.593994	204.000000
745.631592	201.000000
745.669189	193.000000
745.706787	201.000000
745.744385	198.000000
745.781982	204.000000
745.819580	195.000000
745.857178	206.000000
745.894775	197.000000
745.932373	204.000000
745.969971	201.000000
746.007568	191.000000
746.045166	210.000000
746.082764	207.000000
746.120300	205.000000
746.157898	205.000000
746.195557	198.000000
746.233093	196.000000
746.270691	206.000000
746.308228	205.000000
746.345825	209.000000
746.383423	208.000000
746.420959	198.000000
746.458557	200.000000
746.496155	201.000000
746.533691	203.000000
746.571289	199.000000
746.608887	202.000000
746.646423	203.000000
746.684021	203.000000
746.721619	196.000000
746.759155	202.000000
746.796753	197.000000
746.834351	195.000000
746.871826	199.000000
746.909424	210.000000
746.946960	208.000000
746.984558	199.000000
747.022156	202.000000
747.059631	205.000000
747.097229	207.000000
747.134827	200.000000
747.172363	209.000000
747.209900	199.000000
747.247498	199.000000
747.285034	205.000000
747.322571	213.000000
747.360168	193.000000
747.397644	194.000000
747.435242	207.000000
747.472778	211.000000
747.510315	196.000000
747.547913	197.000000
747.585388	209.000000
747.622925	199.000000
747.660522	188.000000
747.697998	201.000000
747.735596	199.000000
747.773132	200.000000
747.810669	196.000000
747.848206	206.000000
747.885742	194.000000
747.923279	197.000000
747.960815	199.000000
747.998352	205.000000
748.035889	207.000000
748.073425	210.000000
748.110901	201.000000
748.148437	197.000000
748.185974	204.000000
748.223511	213.000000
748.261047	201.000000
748.298584	201.000000
748.336060	203.000000
748.373596	204.000000
748.411133	216.000000
748.448608	196.000000
748.486145	208.000000
748.523682	206.000000
748.561218	208.000000
748.598755	202.000000
748.636292	204.000000
748.673706	198.000000
748.711243	210.000000
748.748718	202.000000
748.786255	206.000000
748.823792	202.000000
748.861267	195.000000
748.898804	200.000000
748.936340	203.000000
748.973816	197.000000
749.011292	210.000000
749.048828	199.000000
749.086304	207.000000
749.123840	212.000000
749.161316	198.000000
749.198792	209.000000
749.236328	210.000000
749.273743	200.000000
749.311279	199.000000
749.348816	202.000000
749.386230	204.000000
749.423767	183.000000
749.461304	206.000000
749.498718	204.000000
749.536255	210.000000
749.573730	219.000000
749.611206	208.000000
749.648682	198.000000
749.686218	200.000000
749.723633	210.000000
749.761169	200.000000
749.798645	199.000000
749.836060	201.000000
749.873596	199.000000
749.911011	200.000000
749.948547	210.000000
749.986023	201.000000
750.023437	200.000000
750.060913	195.000000
750.098450	195.000000
750.135864	200.000000
750.173340	205.000000
750.210815	204.000000
750.248291	196.000000
750.285767	202.000000
750.323242	210.000000
750.360657	201.000000
750.398132	192.000000
750.435608	206.000000
750.473022	202.000000
750.510498	191.000000
750.547974	197.000000
750.585449	200.000000
750.622925	189.000000
750.660339	207.000000
750.697815	204.000000
750.735291	199.000000
750.772644	207.000000
750.810120	203.000000
750.847595	201.000000
750.885010	197.000000
750.922485	210.000000
750.959961	199.000000
750.997375	203.000000
751.034851	207.000000
751.072266	207.000000
751.109680	193.000000
751.147156	209.000000
751.184570	203.000000
751.221985	201.000000
751.259460	193.000000
751.296875	206.000000
751.334290	201.000000
751.371765	207.000000
751.409180	203.000000
751.446594	207.000000
751.484070	209.000000
751.521423	207.000000
751.558899	203.000000
751.596375	207.000000
751.633728	211.000000
751.671204	213.000000
751.708618	201.000000
751.746033	201.000000
751.783447	195.000000
751.820801	198.000000
751.858276	207.000000
751.895691	203.000000
751.933105	202.000000
751.970520	196.000000
752.007935	203.000000
752.045349	204.000000
752.082764	207.000000
752.120178	196.000000
752.157532	201.000000
752.195007	199.000000
752.232422	201.000000
752.269775	202.000000
752.307190	208.000000
752.344543	190.000000
752.382019	200.000000
752.419434	200.000000
752.456787	203.000000
752.494202	202.000000
752.531616	203.000000
752.568970	202.000000
752.606384	201.000000
752.643799	203.000000
752.681152	206.000000
752.718567	206.000000
752.755981	196.000000
752.793335	203.000000
752.830750	195.000000
752.868164	215.000000
752.905518	198.000000
752.942932	204.000000
752.980225	199.000000
753.017639	204.000000
753.055054	206.000000
753.092407	207.000000
753.129822	210.000000
753.167175	211.000000
753.204529	198.000000
753.241943	199.000000
753.279358	195.000000
753.316650	209.000000
753.354065	204.000000
753.391479	210.000000
753.428772	209.000000
753.466187	207.000000
753.503479	193.000000
753.540894	199.000000
753.578308	190.000000
753.615601	199.000000
753.653015	201.000000
753.690369	197.000000
753.727722	193.000000
753.765076	197.000000
753.802490	195.000000
753.839783	194.000000
753.877136	197.000000
753.914551	217.000000
753.951843	195.000000
753.989258	206.000000
754.026611	200.000000
754.063904	208.000000
754.101257	199.000000
754.138611	194.000000
754.175964	204.000000
754.213318	219.000000
754.250610	188.000000
754.288025	197.000000
754.325378	197.000000
754.362671	203.000000
754.400024	200.000000
754.437378	212.000000
754.474670	208.000000
754.512085	199.000000
754.549438	199.000000
754.586731	202.000000
754.624084	205.000000
754.661438	200.000000
754.698730	207.000000
754.736084	197.000000
754.773376	205.000000
754.810730	202.000000
754.848083	200.000000
754.885315	208.000000
754.922668	191.000000
754.960022	196.000000
754.997314	207.000000
755.034668	202.000000
755.072021	206.000000
755.109253	199.000000
755.146606	212.000000
755.183960	199.000000
755.221252	210.000000
755.258545	203.000000
755.295898	209.000000
755.333191	210.000000
755.370544	210.000000
755.407776	201.000000
755.445129	207.000000
755.482422	206.000000
755.519714	199.000000
755.557068	195.000000
755.594360	191.000000
755.631653	209.000000
755.668945	218.000000
755.706299	204.000000
755.743530	218.000000
755.780884	212.000000
755.818176	209.000000
755.855408	215.000000
755.892761	207.000000
755.930054	204.000000
755.967346	208.000000
756.004639	211.000000
756.041870	206.000000
756.079224	213.000000
756.116516	200.000000
756.153748	210.000000
756.191040	212.000000
756.228394	212.000000
756.265625	203.000000
756.302917	207.000000
756.340210	202.000000
756.377441	212.000000
756.414795	212.000000
756.452087	208.000000
756.489319	200.000000
756.526611	213.000000
756.563843	211.000000
756.601135	220.000000
756.638428	217.000000
756.675659	209.000000
756.712952	207.000000
756.750244	211.000000
756.787476	205.000000
756.824768	214.000000
756.862061	206.000000
756.899292	261.000000
756.936584	209.000000
756.973816	220.000000
757.011047	221.000000
757.048340	212.000000
757.085632	209.000000
757.122864	226.000000
757.160156	204.000000
757.197327	216.000000
757.234619	215.000000
757.271912	209.000000
757.309082	215.000000
757.346375	214.000000
757.383667	219.000000
757.420837	215.000000
757.458130	217.000000
757.495422	211.000000
757.532593	216.000000
757.569885	210.000000
757.607117	212.000000
757.644348	212.000000
757.681580	226.000000
757.718811	199.000000
757.756042	214.000000
757.793335	212.000000
757.830505	216.000000
757.867798	209.000000
757.905029	210.000000
757.942200	217.000000
757.979492	212.000000
758.016724	214.000000
758.053894	215.000000
758.091187	232.000000
758.128418	212.000000
758.165588	211.000000
758.202820	229.000000
758.240112	210.000000
758.277283	225.000000
758.314514	215.000000
758.351685	213.000000
758.388916	225.000000
758.426147	226.000000
758.463379	224.000000
758.500610	217.000000
758.537842	220.000000
758.575012	225.000000
758.612244	213.000000
758.649475	233.000000
758.686646	209.000000
758.723877	224.000000
758.761108	228.000000
758.798279	223.000000
758.835510	221.000000
758.872742	231.000000
758.909851	222.000000
758.947083	222.000000
758.984253	221.000000
759.021484	228.000000
759.058716	223.000000
759.095886	228.000000
759.133057	221.000000
759.170288	224.000000
759.207458	224.000000
759.244690	231.000000
759.281860	235.000000
759.319031	226.000000
759.356262	221.000000
759.393433	221.000000
759.430603	225.000000
759.467773	223.000000
759.505005	234.000000
759.542175	234.000000
759.579346	225.000000
759.616516	223.000000
759.653687	229.000000
759.690918	218.000000
759.728027	226.000000
759.765259	221.000000
759.802429	230.000000
759.839539	229.000000
759.876770	236.000000
759.913940	232.000000
759.951111	229.000000
759.988281	225.000000
760.025452	224.000000
760.062561	222.000000
760.099792	238.000000
760.136963	231.000000
760.174072	228.000000
760.211243	219.000000
760.248413	226.000000
760.285583	224.000000
760.322754	241.000000
760.359863	237.000000
760.397034	230.000000
760.434204	229.000000
760.471375	235.000000
760.508545	229.000000
760.545715	231.000000
760.582825	227.000000
760.619995	236.000000
760.657166	223.000000
760.694275	240.000000
760.731445	232.000000
760.768555	235.000000
760.805664	238.000000
760.842834	232.000000
760.879944	237.000000
760.917114	236.000000
760.954285	229.000000
760.991394	228.000000
761.028564	246.000000
761.065674	235.000000
761.102783	228.000000
761.139954	240.000000
761.177124	244.000000
761.214172	241.000000
761.251343	239.000000
761.288452	235.000000
761.325562	242.000000
761.362732	235.000000
761.399841	238.000000
761.436951	239.000000
761.474121	239.000000
761.511169	239.000000
761.548340	244.000000
761.585449	248.000000
761.622559	250.000000
761.659668	241.000000
761.696838	248.000000
761.733887	243.000000
761.771057	241.000000
761.808167	244.000000
761.845276	251.000000
761.882385	259.000000
761.919434	257.000000
761.956604	271.000000
761.993713	249.000000
762.030762	258.000000
762.067871	251.000000
762.105042	253.000000
762.142090	260.000000
762.179199	254.000000
762.216309	257.000000
762.253418	274.000000
762.290527	263.000000
762.327637	261.000000
762.364685	251.000000
762.401794	261.000000
762.438904	263.000000
762.475952	252.000000
762.513062	251.000000
762.550110	250.000000
762.587219	263.000000
762.624329	266.000000
762.661377	267.000000
762.698486	265.000000
762.735596	258.000000
762.772644	256.000000
762.809753	254.000000
762.846863	260.000000
762.883911	262.000000
762.921021	266.000000
762.958069	258.000000
762.995117	274.000000
763.032227	271.000000
763.069336	265.000000
763.106323	259.000000
763.143433	264.000000
763.180481	273.000000
763.217590	272.000000
763.254639	268.000000
763.291687	263.000000
763.328735	269.000000
763.365845	263.000000
763.402893	261.000000
763.439941	270.000000
763.477051	271.000000
763.514038	277.000000
763.551147	264.000000
763.588196	276.000000
763.625244	268.000000
763.662292	280.000000
763.699402	278.000000
763.736389	273.000000
763.773499	288.000000
763.810486	282.000000
763.847534	281.000000
763.884644	285.000000
763.921631	275.000000
763.958679	290.000000
763.995728	282.000000
764.032776	294.000000
764.069824	274.000000
764.106873	287.000000
764.143860	287.000000
764.180969	276.000000
764.218018	288.000000
764.255005	273.000000
764.292053	285.000000
764.329102	297.000000
764.366089	301.000000
764.403137	292.000000
764.440125	286.000000
764.477173	289.000000
764.514221	298.000000
764.551208	285.000000
764.588257	282.000000
764.625305	292.000000
764.662292	298.000000
764.699341	303.000000
764.736389	292.000000
764.773376	316.000000
764.810425	304.000000
764.847473	304.000000
764.884399	303.000000
764.921448	314.000000
764.958435	310.000000
764.995483	299.000000
765.032532	318.000000
765.069458	296.000000
765.106506	304.000000
765.143555	299.000000
765.180481	302.000000
765.217529	310.000000
765.254578	297.000000
765.291504	316.000000
765.328552	314.000000
765.365540	309.000000
765.402527	323.000000
765.439575	314.000000
765.476501	304.000000
765.513550	306.000000
765.550537	304.000000
765.587463	316.000000
765.624512	303.000000
765.661499	298.000000
765.698486	315.000000
765.735474	304.000000
765.772461	315.000000
765.809448	325.000000
765.846436	314.000000
765.883423	325.000000
765.920410	319.000000
765.957397	310.000000
765.994385	321.000000
766.031311	331.000000
766.068359	316.000000
766.105286	318.000000
766.142273	325.000000
766.179260	315.000000
766.216187	310.000000
766.253174	313.000000
766.290161	314.000000
766.327148	327.000000
766.364136	324.000000
766.401123	343.000000
766.438049	319.000000
766.475037	336.000000
766.512024	335.000000
766.548950	346.000000
766.585937	344.000000
766.622864	343.000000
766.659790	345.000000
766.696777	331.000000
766.733704	339.000000
766.770691	343.000000
766.807678	351.000000
766.844604	344.000000
766.881531	350.000000
766.918518	360.000000
766.955444	360.000000
766.992432	354.000000
767.029358	359.000000
767.066284	358.000000
767.103271	357.000000
767.140198	383.000000
767.177124	375.000000
767.214050	364.000000
767.251038	369.000000
767.287964	365.000000
767.324890	360.000000
767.361816	363.000000
767.398743	378.000000
767.435730	369.000000
767.472595	365.000000
767.509583	383.000000
767.546509	368.000000
767.583374	375.000000
767.620361	369.000000
767.657288	377.000000
767.694214	381.000000
767.731140	372.000000
767.768066	387.000000
767.804993	378.000000
767.841919	370.000000
767.878845	383.000000
767.915710	379.000000
767.952698	378.000000
767.989563	393.000000
768.026489	393.000000
768.063416	383.000000
768.100281	383.000000
768.137207	393.000000
768.174133	393.000000
768.211060	400.000000
768.247986	398.000000
768.284912	388.000000
768.321777	395.000000
768.358704	390.000000
768.395630	398.000000
768.432495	400.000000
768.469421	406.000000
768.506348	399.000000
768.543152	417.000000
768.580078	406.000000
768.616943	410.000000
768.653870	421.000000
768.690796	415.000000
768.727661	412.000000
768.764587	407.000000
768.801453	396.000000
768.838318	420.000000
768.875244	418.000000
768.912109	436.000000
768.948975	400.000000
768.985901	426.000000
769.022766	411.000000
769.059631	424.000000
769.096558	417.000000
769.133362	421.000000
769.170288	427.000000
769.207214	420.000000
769.244019	433.000000
769.280945	437.000000
769.317810	437.000000
769.354675	436.000000
769.391541	437.000000
769.428406	431.000000
769.465271	448.000000
769.502136	431.000000
769.539062	438.000000
769.575867	448.000000
769.612732	443.000000
769.649597	454.000000
769.686462	452.000000
769.723328	455.000000
769.760193	448.000000
769.797058	460.000000
769.833923	457.000000
769.870728	455.000000
769.907593	456.000000
769.944519	459.000000
769.981323	473.000000
770.018188	464.000000
770.055054	457.000000
770.091858	463.000000
770.128723	473.000000
770.165588	482.000000
770.202393	467.000000
770.239258	475.000000
770.276062	472.000000
770.312927	474.000000
770.349792	481.000000
770.386597	479.000000
770.423462	488.000000
770.460327	500.000000
770.497131	481.000000
770.533997	470.000000
770.570862	493.000000
770.607605	482.000000
770.644470	489.000000
770.681335	497.000000
770.718140	492.000000
770.754944	485.000000
770.791809	489.000000
770.828613	487.000000
770.865479	494.000000
770.902222	495.000000
770.939087	487.000000
770.975952	483.000000
771.012695	494.000000
771.049561	501.000000
771.086365	496.000000
771.123169	500.000000
771.159973	499.000000
771.196838	505.000000
771.233582	494.000000
771.270447	500.000000
771.307251	508.000000
771.344055	514.000000
771.380859	508.000000
771.417664	511.000000
771.454468	524.000000
771.491272	500.000000
771.528076	510.000000
771.564880	510.000000
771.601685	523.000000
771.638428	523.000000
771.675293	527.000000
771.712097	517.000000
771.748840	525.000000
771.785645	537.000000
771.822449	524.000000
771.859253	534.000000
771.896057	539.000000
771.932861	553.000000
771.969604	535.000000
772.006409	529.000000
772.043213	538.000000
772.079956	543.000000
772.116760	532.000000
772.153503	551.000000
772.190308	562.000000
772.227112	546.000000
772.263855	543.000000
772.300659	551.000000
772.337463	562.000000
772.374207	560.000000
772.411011	539.000000
772.447754	552.000000
772.484497	567.000000
772.521301	567.000000
772.558105	556.000000
772.594849	565.000000
772.631592	583.000000
772.668396	574.000000
772.705139	572.000000
772.741882	574.000000
772.778625	580.000000
772.815430	599.000000
772.852173	599.000000
772.888916	603.000000
772.925720	596.000000
772.962463	622.000000
772.999207	607.000000
773.035950	620.000000
773.072754	621.000000
773.109436	611.000000
773.146240	611.000000
773.182922	614.000000
773.219727	618.000000
773.256470	619.000000
773.293152	620.000000
773.329956	632.000000
773.366699	633.000000
773.403381	614.000000
773.440186	615.000000
773.476929	619.000000
773.513611	642.000000
773.550354	633.000000
773.587158	631.000000
773.623840	623.000000
773.660583	629.000000
773.697327	642.000000
773.734009	647.000000
773.770813	645.000000
773.807495	645.000000
773.844238	635.000000
773.880981	650.000000
773.917664	652.000000
773.954407	669.000000
773.991150	671.000000
774.027832	657.000000
774.064575	651.000000
774.101318	659.000000
774.138000	666.000000
774.174744	657.000000
774.211487	673.000000
774.248108	678.000000
774.284851	673.000000
774.321594	680.000000
774.358276	682.000000
774.395020	694.000000
774.431702	703.000000
774.468384	694.000000
774.505127	688.000000
774.541809	687.000000
774.578491	691.000000
774.615234	703.000000
774.651917	705.000000
774.688599	713.000000
774.725342	729.000000
774.762024	715.000000
774.798706	711.000000
774.835449	714.000000
774.872070	723.000000
774.908813	728.000000
774.945496	720.000000
774.982178	718.000000
775.018860	720.000000
775.055542	714.000000
775.092224	732.000000
775.128967	747.000000
775.165588	751.000000
775.202271	735.000000
775.239014	735.000000
775.275635	731.000000
775.312317	742.000000
775.349060	750.000000
775.385681	773.000000
775.422363	756.000000
775.459045	749.000000
775.495667	740.000000
775.532410	757.000000
775.569092	766.000000
775.605713	783.000000
775.642395	766.000000
775.679016	768.000000
775.715698	764.000000
775.752380	763.000000
775.789001	753.000000
775.825684	776.000000
775.862366	777.000000
775.898987	787.000000
775.935669	774.000000
775.972351	788.000000
776.008972	778.000000
776.045654	790.000000
776.082336	792.000000
776.118958	784.000000
776.155640	778.000000
776.192322	780.000000
776.228882	787.000000
776.265564	793.000000
776.302185	802.000000
776.338867	806.000000
776.375488	792.000000
776.412109	797.000000
776.448792	796.000000
776.485413	811.000000
776.522034	821.000000
776.558716	798.000000
776.595337	799.000000
776.631958	799.000000
776.668579	788.000000
776.705261	800.000000
776.741882	799.000000
776.778503	803.000000
776.815186	796.000000
776.851746	797.000000
776.888367	803.000000
776.924988	802.000000
776.961609	801.000000
776.998291	799.000000
777.034851	796.000000
777.071472	811.000000
777.108154	798.000000
777.144714	817.000000
777.181335	818.000000
777.218018	816.000000
777.254578	828.000000
777.291199	834.000000
777.327759	837.000000
777.364380	845.000000
777.401062	856.000000
777.437622	886.000000
777.474243	872.000000
777.510864	888.000000
777.547424	861.000000
777.584045	879.000000
777.620667	888.000000
777.657227	881.000000
777.693848	889.000000
777.730469	912.000000
777.767029	886.000000
777.803650	895.000000
777.840271	890.000000
777.876831	881.000000
777.913452	890.000000
777.950012	874.000000
777.986633	874.000000
778.023193	872.000000
778.059753	873.000000
778.096375	870.000000
778.132996	893.000000
778.169556	880.000000
778.206116	891.000000
778.242737	887.000000
778.279297	886.000000
778.315857	884.000000
778.352478	894.000000
778.389038	921.000000
778.425598	912.000000
778.462219	923.000000
778.498718	912.000000
778.535339	917.000000
778.571838	930.000000
778.608459	924.000000
778.645020	909.000000
778.681580	926.000000
778.718140	920.000000
778.754761	912.000000
778.791260	923.000000
778.827881	931.000000
778.864441	904.000000
778.900940	938.000000
778.937561	939.000000
778.974121	947.000000
779.010620	944.000000
779.047241	957.000000
779.083801	963.000000
779.120300	971.000000
779.156860	1003.000000
779.193359	997.000000
779.229980	992.000000
779.266541	998.000000
779.303040	1006.000000
779.339600	1000.000000
779.376160	1006.000000
779.412659	1005.000000
779.449219	1009.000000
779.485779	1007.000000
779.522278	993.000000
779.558838	1000.000000
779.595398	1012.000000
779.631897	1004.000000
779.668457	1014.000000
779.705017	1018.000000
779.741516	1001.000000
779.778076	984.000000
779.814575	999.000000
779.851074	1002.000000
779.887634	1011.000000
779.924133	1019.000000
779.960693	993.000000
779.997253	1017.000000
780.033691	1027.000000
780.070251	1022.000000
780.106812	1059.000000
780.143250	1039.000000
780.179810	1055.000000
780.216370	1042.000000
780.252808	1033.000000
780.289368	1037.000000
780.325867	1061.000000
780.362366	1065.000000
780.398865	1085.000000
780.435364	1063.000000
780.471863	1073.000000
780.508423	1065.000000
780.544861	1091.000000
780.581421	1083.000000
780.617920	1083.000000
780.654419	1089.000000
780.690918	1083.000000
780.727417	1082.000000
780.763916	1082.000000
780.800415	1106.000000
780.836914	1106.000000
780.873352	1125.000000
780.909912	1125.000000
780.946411	1103.000000
780.982849	1104.000000
781.019348	1122.000000
781.055786	1114.000000
781.092346	1115.000000
781.128845	1122.000000
781.165283	1113.000000
781.201782	1119.000000
781.238281	1124.000000
781.274719	1123.000000
781.311218	1130.000000
781.347717	1151.000000
781.384155	1136.000000
781.420654	1151.000000
781.457092	1147.000000
781.493591	1145.000000
781.530090	1142.000000
781.566528	1140.000000
781.602966	1141.000000
781.639465	1136.000000
781.675903	1116.000000
781.712402	1121.000000
781.748901	1156.000000
781.785278	1137.000000
781.821777	1127.000000
781.858276	1121.000000
781.894714	1123.000000
781.931152	1122.000000
781.967651	1137.000000
782.004089	1103.000000
782.040527	1119.000000
782.076965	1119.000000
782.113403	1119.000000
782.149902	1115.000000
782.186340	1133.000000
782.222778	1151.000000
782.259277	1122.000000
782.295654	1133.000000
782.332092	1135.000000
782.368591	1137.000000
782.404968	1148.000000
782.441467	1169.000000
782.477905	1174.000000
782.514282	1169.000000
782.550781	1191.000000
782.587219	1171.000000
782.623596	1187.000000
782.660095	1188.000000
782.696472	1196.000000
782.732910	1198.000000
782.769348	1192.000000
782.805786	1193.000000
782.842224	1195.000000
782.878662	1213.000000
782.915039	1211.000000
782.951477	1238.000000
782.987915	1222.000000
783.024292	1220.000000
783.060730	1219.000000
783.097168	1228.000000
783.133545	1231.000000
783.169983	1215.000000
783.206421	1207.000000
783.242798	1190.000000
783.279236	1172.000000
783.315613	1179.000000
783.352051	1172.000000
783.388489	1203.000000
783.424866	1173.000000
783.461304	1197.000000
783.497681	1207.000000
783.534058	1186.000000
783.570496	1173.000000
783.606934	1209.000000
783.643250	1205.000000
783.679687	1211.000000
783.716125	1201.000000
783.752441	1210.000000
783.788879	1243.000000
783.825317	1258.000000
783.861633	1266.000000
783.898071	1254.000000
783.934448	1270.000000
783.970825	1287.000000
784.007263	1282.000000
784.043579	1295.000000
784.080017	1317.000000
784.116394	1279.000000
784.152710	1280.000000
784.189148	1283.000000
784.225525	1276.000000
784.261902	1273.000000
784.298279	1274.000000
784.334656	1263.000000
784.371033	1241.000000
784.407410	1229.000000
784.443787	1234.000000
784.480164	1222.000000
784.516541	1227.000000
784.552856	1216.000000
784.589233	1211.000000
784.625610	1193.000000
784.661987	1235.000000
784.698364	1231.000000
784.734741	1243.000000
784.771057	1257.000000
784.807434	1253.000000
784.843811	1244.000000
784.880127	1243.000000
784.916504	1285.000000
784.952881	1302.000000
784.989197	1327.000000
785.025574	1337.000000
785.061951	1350.000000
785.098267	1372.000000
785.134644	1377.000000
785.170959	1401.000000
785.207275	1429.000000
785.243652	1448.000000
785.279968	1401.000000
785.316345	1382.000000
785.352722	1367.000000
785.388977	1366.000000
785.425354	1355.000000
785.461731	1350.000000
785.498047	1339.000000
785.534363	1278.000000
785.570679	1238.000000
785.606995	1236.000000
785.643372	1253.000000
785.679687	1243.000000
785.716003	1242.000000
785.752380	1221.000000
785.788635	1206.000000
785.825012	1216.000000
785.861328	1226.000000
785.897644	1226.000000
785.933960	1295.000000
785.970337	1301.000000
786.006592	1320.000000
786.042908	1353.000000
786.079285	1376.000000
786.115540	1432.000000
786.151855	1465.000000
786.188171	1499.000000
786.224487	1514.000000
786.260803	1513.000000
786.297119	1525.000000
786.333435	1530.000000
786.369751	1540.000000
786.406006	1534.000000
786.442322	1516.000000
786.478638	1470.000000
786.514954	1437.000000
786.551270	1391.000000
786.587585	1389.000000
786.623840	1356.000000
786.660156	1346.000000
786.696472	1300.000000
786.732727	1285.000000
786.769043	1270.000000
786.805298	1252.000000
786.841614	1246.000000
786.877930	1295.000000
786.914124	1267.000000
786.950439	1297.000000
786.986755	1305.000000
787.023010	1287.000000
787.059326	1301.000000
787.095642	1328.000000
787.131836	1380.000000
787.168152	1359.000000
787.204468	1376.000000
787.240723	1350.000000
787.276978	1329.000000
787.313293	1335.000000
787.349548	1326.000000
787.385803	1321.000000
787.422058	1263.000000
787.458313	1187.000000
787.494629	1113.000000
787.530823	1045.000000
787.567139	983.000000
787.603455	925.000000
787.639648	870.000000
787.675903	820.000000
787.712219	766.000000
787.748413	711.000000
787.784729	695.000000
787.820984	637.000000
787.857178	611.000000
787.893494	581.000000
787.929749	561.000000
787.965942	560.000000
788.002258	555.000000
788.038452	568.000000
788.074707	564.000000
788.110962	593.000000
788.147217	619.000000
788.183472	650.000000
788.219727	688.000000
788.255920	745.000000
788.292175	803.000000
788.328430	868.000000
788.364624	899.000000
788.400879	972.000000
788.437134	1013.000000
788.473328	1023.000000
788.509583	1076.000000
788.545837	1123.000000
788.582031	1177.000000
788.618286	1210.000000
788.654480	1234.000000
788.690735	1277.000000
788.726990	1318.000000
788.763184	1335.000000
788.799377	1370.000000
788.835632	1395.000000
788.871826	1419.000000
788.908081	1424.000000
788.944336	1425.000000
788.980469	1447.000000
789.016724	1434.000000
789.052979	1460.000000
789.089111	1433.000000
789.125366	1449.000000
789.161621	1423.000000
789.197754	1437.000000
789.234009	1418.000000
789.270142	1401.000000
789.306396	1422.000000
789.342590	1419.000000
789.378784	1423.000000
789.414978	1394.000000
789.451233	1369.000000
789.487366	1376.000000
789.523621	1396.000000
789.559814	1404.000000
789.595947	1413.000000
789.632202	1421.000000
789.668335	1412.000000
789.704529	1413.000000
789.740784	1431.000000
789.776917	1446.000000
789.813110	1462.000000
789.849304	1491.000000
789.885498	1457.000000
789.921692	1455.000000
789.957886	1464.000000
789.994019	1473.000000
790.030212	1493.000000
790.066406	1500.000000
790.102539	1492.000000
790.138733	1482.000000
790.174927	1466.000000
790.211060	1481.000000
790.247253	1474.000000
790.283386	1476.000000
790.319580	1493.000000
790.355774	1424.000000
790.391907	1311.000000
790.428101	1128.000000
790.464294	929.000000
790.500427	818.000000
790.536621	797.000000
790.572754	860.000000
790.608887	966.000000
790.645081	1016.000000
790.681274	1054.000000
790.717346	1095.000000
790.753540	1135.000000
790.789734	1167.000000
790.825867	1177.000000
790.862000	1184.000000
790.898132	1205.000000
790.934265	1211.000000
790.970459	1249.000000
791.006592	1274.000000
791.042725	1306.000000
791.078918	1291.000000
791.114990	1311.000000
791.151184	1303.000000
791.187317	1342.000000
791.223389	1343.000000
791.259583	1367.000000
791.295715	1373.000000
791.331848	1380.000000
791.367981	1378.000000
791.404114	1363.000000
791.440247	1378.000000
791.476379	1414.000000
791.512451	1413.000000
791.548584	1419.000000
791.584778	1413.000000
791.620850	1412.000000
791.656982	1403.000000
791.693115	1418.000000
791.729187	1426.000000
791.765381	1445.000000
791.801514	1456.000000
791.837585	1455.000000
791.873718	1421.000000
791.909851	1421.000000
791.945923	1479.000000
791.982056	1462.000000
792.018188	1477.000000
792.054260	1453.000000
792.090393	1460.000000
792.126465	1441.000000
792.162598	1453.000000
792.198669	1459.000000
792.234741	1451.000000
792.270874	1450.000000
792.307007	1433.000000
792.343079	1414.000000
792.379150	1405.000000
792.415283	1401.000000
792.451355	1421.000000
792.487488	1414.000000
792.523560	1433.000000
792.559631	1424.000000
792.595764	1386.000000
792.631836	1385.000000
792.667908	1415.000000
792.703979	1401.000000
792.740051	1427.000000
792.776184	1424.000000
792.812256	1411.000000
792.848328	1403.000000
792.884399	1410.000000
792.920471	1411.000000
792.956543	1443.000000
792.992615	1446.000000
793.028748	1418.000000
793.064758	1404.000000
793.100830	1395.000000
793.136963	1424.000000
793.172974	1431.000000
793.209045	1429.000000
793.245178	1440.000000
793.281189	1436.000000
793.317261	1420.000000
793.353271	1381.000000
793.389404	1398.000000
793.425476	1417.000000
793.461487	1404.000000
793.497559	1402.000000
793.533630	1382.000000
793.569641	1365.000000
793.605713	1338.000000
793.641785	1357.000000
793.677795	1380.000000
793.713867	1379.000000
793.749878	1399.000000
793.785950	1401.000000
793.822021	1404.000000
793.858032	1377.000000
793.894104	1389.000000
793.930176	1405.000000
793.966187	1415.000000
794.002258	1407.000000
794.038269	1411.000000
794.074280	1393.000000
794.110352	1422.000000
794.146423	1394.000000
794.182373	1414.000000
794.218445	1415.000000
794.254517	1421.000000
794.290466	1397.000000
794.326538	1374.000000
794.362549	1383.000000
794.398560	1363.000000
794.434631	1374.000000
794.470581	1339.000000
794.506653	1330.000000
794.542664	1302.000000
794.578674	1301.000000
794.614685	1303.000000
794.650757	1306.000000
794.686707	1316.000000
794.722778	1321.000000
794.758789	1318.000000
794.794739	1325.000000
794.830811	1329.000000
794.866821	1356.000000
794.902771	1367.000000
794.938843	1366.000000
794.974792	1371.000000
795.010803	1377.000000
795.046814	1365.000000
795.082825	1353.000000
795.118835	1367.000000
795.154846	1341.000000
795.190796	1372.000000
795.226807	1351.000000
795.262817	1363.000000
795.298767	1319.000000
795.334778	1319.000000
795.370850	1319.000000
795.406799	1333.000000
795.442810	1315.000000
795.478821	1308.000000
795.514709	1308.000000
795.550720	1301.000000
795.586670	1275.000000
795.622681	1272.000000
795.658691	1310.000000
795.694641	1338.000000
795.730652	1330.000000
795.766663	1325.000000
795.802551	1326.000000
795.838562	1341.000000
795.874573	1347.000000
795.910522	1354.000000
795.946472	1352.000000
795.982483	1362.000000
796.018433	1336.000000
796.054382	1317.000000
796.090393	1300.000000
796.126282	1299.000000
796.162292	1310.000000
796.198242	1316.000000
796.234192	1291.000000
796.270203	1260.000000
796.306091	1278.000000
796.342041	1272.000000
796.378052	1293.000000
796.413940	1300.000000
796.449951	1317.000000
796.485901	1289.000000
796.521790	1283.000000
796.557800	1289.000000
796.593689	1289.000000
796.629639	1302.000000
796.665649	1295.000000
796.701599	1316.000000
796.737488	1291.000000
796.773437	1291.000000
796.809387	1301.000000
796.845337	1317.000000
796.881287	1339.000000
796.917175	1333.000000
796.953125	1321.000000
796.989075	1319.000000
797.024963	1297.000000
797.060913	1306.000000
797.096863	1299.000000
797.132751	1323.000000
797.168701	1299.000000
797.204590	1294.000000
797.240540	1266.000000
797.276489	1246.000000
797.312439	1253.000000
797.348328	1255.000000
797.384277	1273.000000
797.420166	1265.000000
797.456055	1254.000000
797.492004	1235.000000
797.527893	1231.000000
797.563843	1250.000000
797.599731	1254.000000
797.635620	1256.000000
797.671570	1264.000000
797.707520	1264.000000
797.743347	1236.000000
797.779297	1238.000000
797.815125	1258.000000
797.851074	1275.000000
797.887024	1294.000000
797.922913	1272.000000
797.958801	1248.000000
797.994690	1233.000000
798.030579	1240.000000
798.066467	1256.000000
798.102356	1261.000000
798.138245	1247.000000
798.174133	1235.000000
798.210083	1220.000000
798.245911	1220.000000
798.281799	1235.000000
798.317749	1213.000000
798.353577	1229.000000
798.389465	1235.000000
798.425293	1235.000000
798.461243	1217.000000
798.497131	1199.000000
798.532959	1203.000000
798.568848	1246.000000
798.604736	1232.000000
798.640564	1222.000000
798.676453	1209.000000
798.712402	1194.000000
798.748230	1179.000000
798.784119	1188.000000
798.820007	1205.000000
798.855835	1228.000000
798.891724	1224.000000
798.927551	1191.000000
798.963379	1178.000000
798.999268	1191.000000
799.035095	1178.000000
799.070984	1191.000000
799.106873	1203.000000
799.142700	1216.000000
799.178528	1182.000000
799.214417	1169.000000
799.250244	1173.000000
799.286133	1175.000000
799.321960	1201.000000
799.357788	1185.000000
799.393677	1175.000000
799.429504	1178.000000
799.465332	1151.000000
799.501221	1165.000000
799.537048	1175.000000
799.572876	1193.000000
799.608704	1181.000000
799.644531	1172.000000
799.680359	1187.000000
799.716248	1173.000000
799.752014	1183.000000
799.787903	1170.000000
799.823730	1183.000000
799.859558	1167.000000
799.895386	1147.000000
799.931213	1133.000000
799.967041	1132.000000
800.002869	1139.000000
800.038696	1169.000000
800.074463	1145.000000
800.110352	1145.000000
800.146179	1116.000000
800.181946	1128.000000
800.217773	1128.000000
800.253540	1131.000000
800.289429	1149.000000
800.325256	1145.000000
800.361023	1113.000000
800.396851	1112.000000
800.432678	1107.000000
800.468445	1103.000000
800.504272	1111.000000
800.540100	1111.000000
800.575867	1113.000000
800.611694	1103.000000
800.647461	1089.000000
800.683289	1073.000000
800.719116	1101.000000
800.754883	1095.000000
800.790649	1077.000000
800.826477	1075.000000
800.862244	1068.000000
800.898071	1048.000000
800.933838	1046.000000
800.969604	1048.000000
801.005432	1055.000000
801.041199	1056.000000
801.076965	1042.000000
801.112793	1019.000000
801.148560	1020.000000
801.184326	1029.000000
801.220154	1023.000000
801.255859	1030.000000
801.291687	1021.000000
801.327454	1013.000000
801.363281	1006.000000
801.398987	998.000000
801.434814	1000.000000
801.470520	1004.000000
801.506287	980.000000
801.542114	986.000000
801.577820	988.000000
801.613647	984.000000
801.649414	963.000000
801.685120	985.000000
801.720886	995.000000
801.756714	970.000000
801.792419	983.000000
801.828186	965.000000
801.863892	962.000000
801.899719	951.000000
801.935486	957.000000
801.971252	958.000000
802.006958	965.000000
802.042725	967.000000
802.078430	953.000000
802.114197	945.000000
802.149963	965.000000
802.185669	947.000000
802.221436	953.000000
802.257202	956.000000
802.292908	966.000000
802.328674	964.000000
802.364441	943.000000
802.400146	947.000000
802.435913	942.000000
802.471558	955.000000
802.507324	932.000000
802.543091	932.000000
802.578796	938.000000
802.614502	937.000000
802.650269	952.000000
802.685974	942.000000
802.721741	941.000000
802.757446	958.000000
802.793152	944.000000
802.828918	942.000000
802.864624	941.000000
802.900330	940.000000
802.936035	940.000000
802.971802	935.000000
803.007446	939.000000
803.043213	910.000000
803.078857	914.000000
803.114624	897.000000
803.150330	904.000000
803.185974	907.000000
803.221741	895.000000
803.257446	905.000000
803.293152	902.000000
803.328857	892.000000
803.364563	887.000000
803.400208	889.000000
803.435974	898.000000
803.471680	880.000000
803.507324	885.000000
803.543030	865.000000
803.578735	864.000000
803.614441	873.000000
803.650146	878.000000
803.685791	858.000000
803.721497	867.000000
803.757202	857.000000
803.792847	847.000000
803.828552	849.000000
803.864258	854.000000
803.899902	852.000000
803.935608	839.000000
803.971313	840.000000
804.006958	832.000000
804.042664	827.000000
804.078308	841.000000
804.113953	828.000000
804.149658	857.000000
804.185364	831.000000
804.221008	820.000000
804.256714	821.000000
804.292297	805.000000
804.328003	804.000000
804.363708	799.000000
804.399292	811.000000
804.434998	810.000000
804.470703	800.000000
804.506287	804.000000
804.541992	797.000000
804.577637	804.000000
804.613281	787.000000
804.648926	793.000000
804.684570	793.000000
804.720215	793.000000
804.755920	782.000000
804.791565	782.000000
804.827209	793.000000
804.862854	793.000000
804.898437	792.000000
804.934143	788.000000
804.969788	786.000000
805.005371	792.000000
805.041077	783.000000
805.076721	782.000000
805.112305	782.000000
805.147949	793.000000
805.183655	781.000000
805.219238	778.000000
805.254883	772.000000
805.290466	791.000000
805.326111	780.000000
805.361755	771.000000
805.397400	772.000000
805.432983	774.000000
805.468628	780.000000
805.504211	764.000000
805.539856	772.000000
805.575500	782.000000
805.611084	768.000000
805.646729	755.000000
805.682373	771.000000
805.717957	763.000000
805.753601	773.000000
805.789246	745.000000
805.824768	757.000000
805.860413	764.000000
805.895996	752.000000
805.931641	755.000000
805.967224	762.000000
806.002869	744.000000
806.038452	753.000000
806.074036	753.000000
806.109619	749.000000
806.145264	740.000000
806.180847	738.000000
806.216431	723.000000
806.252014	728.000000
806.287659	734.000000
806.323181	742.000000
806.358826	737.000000
806.394409	711.000000
806.429993	721.000000
806.465576	723.000000
806.501160	700.000000
806.536743	697.000000
806.572327	711.000000
806.607910	707.000000
806.643494	709.000000
806.679077	695.000000
806.714661	692.000000
806.750244	689.000000
806.785828	684.000000
806.821350	695.000000
806.856934	692.000000
806.892517	687.000000
806.928101	670.000000
806.963684	676.000000
806.999268	683.000000
807.034790	658.000000
807.070374	659.000000
807.105896	654.000000
807.141479	665.000000
807.177063	665.000000
807.212585	643.000000
807.248169	635.000000
807.283752	646.000000
807.319275	647.000000
807.354858	642.000000
807.390381	640.000000
807.425903	640.000000
807.461487	642.000000
807.497070	630.000000
807.532593	632.000000
807.568115	629.000000
807.603699	625.000000
807.639221	621.000000
807.674744	625.000000
807.710266	628.000000
807.745850	631.000000
807.781372	627.000000
807.816895	617.000000
807.852417	623.000000
807.888000	614.000000
807.923523	609.000000
807.959045	615.000000
807.994629	606.000000
808.030090	609.000000
808.065613	611.000000
808.101135	617.000000
808.136658	613.000000
808.172241	603.000000
808.207764	604.000000
808.243225	600.000000
808.278809	588.000000
808.314270	611.000000
808.349792	594.000000
808.385315	589.000000
808.420837	597.000000
808.456360	604.000000
808.491882	593.000000
808.527344	594.000000
808.562866	609.000000
808.598389	589.000000
808.633850	581.000000
808.669434	584.000000
808.704895	585.000000
808.740417	597.000000
808.775940	586.000000
808.811462	578.000000
808.846924	581.000000
808.882385	581.000000
808.917847	569.000000
808.953369	582.000000
808.988892	565.000000
809.024353	577.000000
809.059875	563.000000
809.095398	575.000000
809.130798	557.000000
809.166321	568.000000
809.201843	554.000000
809.237305	567.000000
809.272766	571.000000
809.308228	549.000000
809.343750	553.000000
809.379211	558.000000
809.414734	562.000000
809.450134	565.000000
809.485657	541.000000
809.521118	553.000000
809.556580	542.000000
809.592102	539.000000
809.627502	539.000000
809.663025	533.000000
809.698486	530.000000
809.733887	523.000000
809.769409	535.000000
809.804871	515.000000
809.840271	526.000000
809.875793	521.000000
809.911194	534.000000
809.946655	518.000000
809.982178	518.000000
810.017639	518.000000
810.053040	520.000000
810.088501	513.000000
810.123901	508.000000
810.159424	502.000000
810.194885	501.000000
810.230286	507.000000
810.265747	506.000000
810.301208	491.000000
810.336609	497.000000
810.372070	496.000000
810.407532	490.000000
810.442932	500.000000
810.478394	502.000000
810.513794	494.000000
810.549255	495.000000
810.584717	490.000000
810.620117	486.000000
810.655518	484.000000
810.690979	486.000000
810.726379	487.000000
810.761841	479.000000
810.797302	477.000000
810.832642	473.000000
810.868103	496.000000
810.903564	481.000000
810.938904	476.000000
810.974365	475.000000
811.009827	478.000000
811.045166	470.000000
811.080627	463.000000
811.115967	467.000000
811.151428	473.000000
811.186829	468.000000
811.222229	471.000000
811.257629	461.000000
811.293091	476.000000
811.328430	465.000000
811.363892	466.000000
811.399292	470.000000
811.434631	464.000000
811.470093	468.000000
811.505493	462.000000
811.540833	450.000000
811.576294	471.000000
811.611694	456.000000
811.647034	453.000000
811.682434	457.000000
811.717773	458.000000
811.753235	469.000000
811.788635	464.000000
811.823975	458.000000
811.859375	467.000000
811.894775	445.000000
811.930115	456.000000
811.965515	447.000000
812.000916	452.000000
812.036255	449.000000
812.071655	454.000000
812.106995	445.000000
812.142395	443.000000
812.177795	452.000000
812.213196	447.000000
812.248474	451.000000
812.283875	439.000000
812.319214	437.000000
812.354614	436.000000
812.390015	428.000000
812.425293	438.000000
812.460693	436.000000
812.496094	435.000000
812.531433	427.000000
812.566772	437.000000
812.602173	432.000000
812.637451	434.000000
812.672852	430.000000
812.708191	428.000000
812.743530	425.000000
812.778931	406.000000
812.814270	418.000000
812.849609	419.000000
812.884949	410.000000
812.920227	403.000000
812.955627	421.000000
812.990967	415.000000
813.026306	412.000000
813.061646	399.000000
813.096985	395.000000
813.132324	395.000000
813.167664	393.000000
813.203003	399.000000
813.238281	390.000000
813.273682	384.000000
813.308960	381.000000
813.344299	382.000000
813.379639	395.000000
813.414978	387.000000
813.450256	389.000000
813.485596	383.000000
813.520874	375.000000
813.556213	392.000000
813.591614	385.000000
813.626831	373.000000
813.662170	379.000000
813.697510	392.000000
813.732788	380.000000
813.768127	389.000000
813.803467	384.000000
813.838745	374.000000
813.874084	378.000000
813.909363	370.000000
813.944641	381.000000
813.979980	369.000000
814.015320	370.000000
814.050598	375.000000
814.085876	377.000000
814.121155	369.000000
814.156494	371.000000
814.191772	366.000000
814.227051	364.000000
814.262390	374.000000
814.297668	371.000000
814.332947	367.000000
814.368225	362.000000
814.403564	367.000000
814.438782	359.000000
814.474121	365.000000
814.509338	357.000000
814.544617	374.000000
814.579956	355.000000
814.615173	368.000000
814.650513	358.000000
814.685791	355.000000
814.721008	362.000000
814.756348	354.000000
814.791626	354.000000
814.826843	358.000000
814.862122	353.000000
814.897400	350.000000
814.932678	353.000000
814.967957	351.000000
815.003235	347.000000
815.038452	345.000000
815.073730	340.000000
815.108948	357.000000
815.144226	350.000000
815.179504	355.000000
815.214722	339.000000
815.250000	339.000000
815.285278	350.000000
815.320496	344.000000
815.355774	346.000000
815.391052	346.000000
815.426270	335.000000
815.461487	336.000000
815.496765	329.000000
815.531982	322.000000
815.567261	331.000000
815.602539	339.000000
815.637695	334.000000
815.672974	341.000000
815.708191	334.000000
815.743408	341.000000
815.778687	327.000000
815.813904	335.000000
815.849121	321.000000
815.884399	320.000000
815.919556	319.000000
815.954834	322.000000
815.990051	324.000000
816.025269	326.000000
816.060486	324.000000
816.095703	320.000000
816.130920	323.000000
816.166199	316.000000
816.201416	322.000000
816.236572	322.000000
816.271851	311.000000
816.307007	321.000000
816.342224	301.000000
816.377441	313.000000
816.412659	307.000000
816.447876	313.000000
816.483093	321.000000
816.518250	310.000000
816.553467	303.000000
816.588745	315.000000
816.623901	308.000000
816.659119	296.000000
816.694275	312.000000
816.729492	301.000000
816.764709	338.000000
816.799927	305.000000
816.835083	308.000000
816.870300	297.000000
816.905457	306.000000
816.940674	307.000000
816.975830	293.000000
817.010986	298.000000
817.046204	297.000000
817.081421	291.000000
817.116577	294.000000
817.151733	307.000000
817.186951	302.000000
817.222107	299.000000
817.257324	306.000000
817.292419	303.000000
817.327637	290.000000
817.362854	298.000000
817.398010	291.000000
817.433167	295.000000
817.468323	292.000000
817.503479	294.000000
817.538635	301.000000
817.573853	300.000000
817.608948	295.000000
817.644165	294.000000
817.679321	286.000000
817.714478	291.000000
817.749634	293.000000
817.784790	302.000000
817.819946	294.000000
817.855103	275.000000
817.890198	289.000000
817.925415	274.000000
817.960571	292.000000
817.995667	287.000000
818.030823	293.000000
818.066040	286.000000
818.101135	286.000000
818.136292	288.000000
818.171448	283.000000
818.206543	289.000000
818.241699	288.000000
818.276855	287.000000
818.311951	286.000000
818.347107	276.000000
818.382263	288.000000
818.417358	296.000000
818.452515	290.000000
818.487610	298.000000
818.522766	281.000000
818.557922	289.000000
818.593018	293.000000
818.628113	284.000000
818.663269	279.000000
818.698364	285.000000
818.733521	282.000000
818.768677	283.000000
818.803711	274.000000
818.838867	274.000000
818.874023	279.000000
818.909058	279.000000
818.944214	272.000000
818.979370	277.000000
819.014404	277.000000
819.049561	265.000000
819.084595	269.000000
819.119751	268.000000
819.154846	273.000000
819.189941	270.000000
819.225037	270.000000
819.260193	260.000000
819.295227	265.000000
819.330322	261.000000
819.365479	261.000000
819.400513	283.000000
819.435608	255.000000
819.470764	259.000000
819.505798	259.000000
819.540894	259.000000
819.575989	262.000000
819.611084	268.000000
819.646179	269.000000
819.681213	265.000000
819.716309	259.000000
819.751404	263.000000
819.786438	264.000000
819.821533	253.000000
819.856628	267.000000
819.891663	261.000000
819.926758	269.000000
819.961853	271.000000
819.996887	255.000000
820.031982	264.000000
820.067017	259.000000
820.102112	286.000000
820.137207	261.000000
820.172302	279.000000
820.207275	253.000000
820.242371	255.000000
820.277405	254.000000
820.312500	256.000000
820.347534	250.000000
820.382568	266.000000
820.417664	250.000000
820.452759	251.000000
820.487732	249.000000
820.522827	252.000000
820.557861	241.000000
820.592896	259.000000
820.627930	249.000000
820.662964	251.000000
820.698059	256.000000
820.733093	250.000000
820.768127	254.000000
820.803162	256.000000
820.838196	246.000000
820.873230	251.000000
820.908264	251.000000
820.943298	250.000000
820.978333	250.000000
821.013367	253.000000
821.048401	257.000000
821.083435	255.000000
821.118469	241.000000
821.153503	256.000000
821.188477	245.000000
821.223511	241.000000
821.258484	252.000000
821.293579	251.000000
821.328613	240.000000
821.363647	248.000000
821.398621	243.000000
821.433655	243.000000
821.468628	262.000000
821.503662	245.000000
821.538696	252.000000
821.573669	239.000000
821.608704	249.000000
821.643677	239.000000
821.678650	248.000000
821.713684	249.000000
821.748718	243.000000
821.783691	240.000000
821.818726	246.000000
821.853638	245.000000
821.888672	234.000000
821.923706	235.000000
821.958618	239.000000
821.993652	239.000000
822.028687	247.000000
822.063599	248.000000
822.098633	241.000000
822.133667	232.000000
822.168579	236.000000
822.203613	241.000000
822.238586	234.000000
822.273560	245.000000
822.308533	233.000000
822.343567	236.000000
822.378479	233.000000
822.413452	234.000000
822.448425	230.000000
822.483398	242.000000
822.518372	244.000000
822.553345	230.000000
822.588318	244.000000
822.623291	236.000000
822.658203	233.000000
822.693237	237.000000
822.728210	227.000000
822.763123	232.000000
822.798096	225.000000
822.833069	232.000000
822.867981	227.000000
822.902954	235.000000
822.937927	234.000000
822.972900	233.000000
823.007874	220.000000
823.042725	234.000000
823.077698	242.000000
823.112671	227.000000
823.147583	225.000000
823.182556	229.000000
823.217529	232.000000
823.252441	229.000000
823.287415	240.000000
823.322388	234.000000
823.357239	229.000000
823.392212	238.000000
823.427185	229.000000
823.462097	222.000000
823.497009	224.000000
823.531982	232.000000
823.566895	225.000000
823.601807	220.000000
823.636719	221.000000
823.671631	231.000000
823.706604	218.000000
823.741455	228.000000
823.776428	214.000000
823.811340	229.000000
823.846252	231.000000
823.881165	234.000000
823.916138	225.000000
823.950989	236.000000
823.985901	222.000000
824.020813	222.000000
824.055725	225.000000
824.090637	218.000000
824.125610	222.000000
824.160461	224.000000
824.195374	229.000000
824.230225	229.000000
824.265198	218.000000
824.300110	218.000000
824.334961	234.000000
824.369873	214.000000
824.404785	226.000000
824.439636	227.000000
824.474548	218.000000
824.509460	212.000000
824.544312	231.000000
824.579224	227.000000
824.614075	227.000000
824.648987	218.000000
824.683899	224.000000
824.718811	217.000000
824.753662	233.000000
824.788574	226.000000
824.823364	220.000000
824.858276	213.000000
824.893188	227.000000
824.928040	225.000000
824.962952	223.000000
824.997803	224.000000
825.032654	220.000000
825.067566	218.000000
825.102417	216.000000
825.137268	217.000000
825.172119	214.000000
825.206970	214.000000
825.241882	222.000000
825.276733	211.000000
825.311646	218.000000
825.346436	212.000000
825.381348	212.000000
825.416138	222.000000
825.450989	214.000000
825.485901	206.000000
825.520691	212.000000
825.555542	213.000000
825.590454	212.000000
825.625244	205.000000
825.660095	220.000000
825.695007	223.000000
825.729797	218.000000
825.764648	218.000000
825.799438	213.000000
825.834290	218.000000
825.869202	209.000000
825.903992	218.000000
825.938843	211.000000
825.973694	211.000000
826.008484	222.000000
826.043335	213.000000
826.078186	205.000000
826.112976	221.000000
826.147827	220.000000
826.182678	225.000000
826.217468	203.000000
826.252319	221.000000
826.287109	208.000000
826.321899	218.000000
826.356750	212.000000
826.391541	208.000000
826.426392	213.000000
826.461182	214.000000
826.495972	203.000000
826.530823	199.000000
826.565613	209.000000
826.600403	208.000000
826.635254	213.000000
826.670044	202.000000
826.704834	205.000000
826.739685	205.000000
826.774475	216.000000
826.809265	210.000000
826.844055	201.000000
826.878906	219.000000
826.913635	213.000000
826.948425	215.000000
826.983215	213.000000
827.018005	219.000000
827.052856	206.000000
827.087585	217.000000
827.122375	204.000000
827.157227	211.000000
827.191956	223.000000
827.226746	205.000000
827.261536	212.000000
827.296265	204.000000
827.331116	212.000000
827.365906	209.000000
827.400635	208.000000
827.435425	203.000000
827.470215	216.000000
827.504944	204.000000
827.539734	214.000000
827.574463	200.000000
827.609253	220.000000
827.644043	211.000000
827.678772	214.000000
827.713562	203.000000
827.748352	207.000000
827.783081	200.000000
827.817871	208.000000
827.852600	201.000000
827.887329	206.000000
827.922119	192.000000
827.956848	210.000000
827.991638	218.000000
828.026367	208.000000
828.061157	207.000000
828.095886	205.000000
828.130615	222.000000
828.165344	195.000000
828.200073	202.000000
828.234863	203.000000
828.269592	203.000000
828.304321	210.000000
828.339111	206.000000
828.373779	196.000000
828.408569	207.000000
828.443298	215.000000
828.477966	203.000000
828.512756	205.000000
828.547424	203.000000
828.582214	202.000000
828.616943	201.000000
828.651672	204.000000
828.686340	208.000000
828.721130	199.000000
828.755798	207.000000
828.790527	203.000000
828.825256	205.000000
828.859924	205.000000
828.894714	212.000000
828.929443	209.000000
828.964111	204.000000
828.998840	203.000000
829.033569	204.000000
829.068237	201.000000
829.102966	201.000000
829.137634	209.000000
829.172363	206.000000
829.207092	203.000000
829.241821	197.000000
829.276489	190.000000
829.311157	206.000000
829.345825	192.000000
829.380554	212.000000
829.415283	195.000000
829.449951	196.000000
829.484619	209.000000
829.519348	212.000000
829.554016	201.000000
829.588745	200.000000
829.623413	195.000000
829.658081	212.000000
829.692749	199.000000
829.727417	207.000000
829.762146	201.000000
829.796814	199.000000
829.831482	206.000000
829.866150	201.000000
829.900879	200.000000
829.935486	205.000000
829.970154	198.000000
830.004883	215.000000
830.039490	207.000000
830.074219	196.000000
830.108887	203.000000
830.143494	203.000000
830.178223	196.000000
830.212891	201.000000
830.247498	203.000000
830.282166	205.000000
830.316772	207.000000
830.351501	198.000000
830.386169	201.000000
830.420776	200.000000
830.455444	201.000000
830.490112	193.000000
830.524719	195.000000
830.559387	206.000000
830.594055	205.000000
830.628662	204.000000
830.663330	202.000000
830.697998	209.000000
830.732605	202.000000
830.767273	202.000000
830.801941	200.000000
830.836487	209.000000
830.871155	208.000000
830.905762	199.000000
830.940430	196.000000
830.975098	197.000000
831.009644	202.000000
831.044312	209.000000
831.078979	205.000000
831.113525	188.000000
831.148193	201.000000
831.182861	198.000000
831.217407	204.000000
831.252075	219.000000
831.286621	197.000000
831.321289	193.000000
831.355896	202.000000
831.390564	214.000000
831.425110	200.000000
831.459778	208.000000
831.494324	211.000000
831.528931	204.000000
831.563599	208.000000
831.598145	197.000000
831.632751	202.000000
831.667419	202.000000
831.701965	202.000000
831.736572	201.000000
831.771179	191.000000
831.805786	198.000000
831.840393	203.000000
831.874939	198.000000
831.909546	204.000000
831.944153	189.000000
831.978760	201.000000
832.013306	193.000000
832.047913	207.000000
832.082458	214.000000
832.117065	200.000000
832.151672	210.000000
832.186218	200.000000
832.220825	202.000000
832.255432	190.000000
832.289978	199.000000
832.324585	201.000000
832.359192	202.000000
832.393677	195.000000
832.428284	202.000000
832.462830	195.000000
832.497437	202.000000
832.531982	205.000000
832.566589	201.000000
832.601135	199.000000
832.635681	197.000000
832.670227	197.000000
832.704773	212.000000
832.739380	203.000000
832.773926	202.000000
832.808472	199.000000
832.843079	199.000000
832.877563	205.000000
832.912170	201.000000
832.946716	194.000000
832.981201	208.000000
833.015808	204.000000
833.050293	198.000000
833.084839	197.000000
833.119446	199.000000
833.153992	207.000000
833.188477	201.000000
833.223022	200.000000
833.257568	201.000000
833.292114	207.000000
833.326660	213.000000
833.361145	198.000000
833.395691	189.000000
833.430237	201.000000
833.464783	207.000000
833.499329	199.000000
833.533875	193.000000
833.568359	202.000000
833.602905	205.000000
833.637390	206.000000
833.671875	197.000000
833.706421	201.000000
833.740906	197.000000
833.775452	191.000000
833.809998	194.000000
833.844482	207.000000
833.879028	198.000000
833.913513	193.000000
833.947998	202.000000
833.982544	195.000000
834.017090	197.000000
834.051514	192.000000
834.086060	202.000000
834.120544	203.000000
834.155029	200.000000
834.189575	201.000000
834.223999	202.000000
834.258545	201.000000
834.293030	201.000000
834.327515	200.000000
834.362000	197.000000
834.396545	204.000000
834.430969	197.000000
834.465454	204.000000
834.500000	194.000000
834.534424	205.000000
834.568970	192.000000
834.603455	191.000000
834.637878	193.000000
834.672363	199.000000
834.706909	206.000000
834.741333	196.000000
834.775818	195.000000
834.810242	197.000000
834.844727	200.000000
834.879211	198.000000
834.913635	203.000000
834.948181	198.000000
834.982666	200.000000
835.017090	196.000000
835.051575	201.000000
835.086060	193.000000
835.120483	208.000000
835.154907	200.000000
835.189331	202.000000
835.223816	201.000000
835.258301	194.000000
835.292786	193.000000
835.327209	205.000000
835.361694	192.000000
835.396057	198.000000
835.430542	205.000000
835.465027	202.000000
835.499390	194.000000
835.533875	217.000000
835.568359	198.000000
835.602722	197.000000
835.637207	203.000000
835.671692	195.000000
835.706055	215.000000
835.740540	207.000000
835.774902	203.000000
835.809387	207.000000
835.843811	195.000000
835.878235	208.000000
835.912659	196.000000
835.947083	198.000000
835.981506	200.000000
836.015930	191.000000
836.050354	209.000000
836.084778	209.000000
836.119202	207.000000
836.153625	209.000000
836.187988	198.000000
836.222473	198.000000
836.256897	204.000000
836.291260	199.000000
836.325684	200.000000
836.360046	194.000000
836.394470	200.000000
836.428894	204.000000
836.463318	196.000000
836.497681	203.000000
836.532104	206.000000
836.566467	202.000000
836.600891	196.000000
836.635315	207.000000
836.669678	202.000000
836.704102	201.000000
836.738525	202.000000
836.772888	190.000000
836.807251	196.000000
836.841675	199.000000
836.876038	197.000000
836.910461	192.000000
836.944763	207.000000
836.979187	198.000000
837.013611	206.000000
837.047974	193.000000
837.082336	214.000000
837.116699	204.000000
837.151062	200.000000
837.185486	197.000000
837.219849	198.000000
837.254211	202.000000
837.288574	199.000000
837.322937	193.000000
837.357300	189.000000
837.391663	218.000000
837.426086	205.000000
837.460388	204.000000
837.494751	201.000000
837.529114	199.000000
837.563477	210.000000
837.597839	205.000000
837.632141	198.000000
837.666565	201.000000
837.700928	198.000000
837.735229	206.000000
837.769592	202.000000
837.803955	207.000000
837.838257	196.000000
837.872620	197.000000
837.906982	208.000000
837.941284	197.000000
837.975647	198.000000
838.010010	205.000000
838.044312	196.000000
838.078674	203.000000
838.112976	199.000000
838.147339	200.000000
838.181702	196.000000
838.216003	213.000000
838.250366	198.000000
838.284668	203.000000
838.318970	192.000000
838.353333	199.000000
838.387634	199.000000
838.421936	206.000000
838.456299	199.000000
838.490601	209.000000
838.524902	204.000000
838.559265	203.000000
838.593567	204.000000
838.627869	197.000000
838.662170	200.000000
838.696472	195.000000
838.730774	196.000000
838.765137	202.000000
838.799377	181.000000
838.833740	201.000000
838.868042	206.000000
838.902283	190.000000
838.936646	208.000000
838.970947	202.000000
839.005188	212.000000
839.039551	189.000000
839.073792	204.000000
839.108093	194.000000
839.142395	210.000000
839.176697	193.000000
839.210937	202.000000
839.245300	210.000000
839.279541	192.000000
839.313843	200.000000
839.348145	205.000000
839.382385	200.000000
839.416687	208.000000
839.450989	204.000000
839.485229	199.000000
839.519531	188.000000
839.553833	205.000000
839.588013	197.000000
839.622314	198.000000
839.656555	203.000000
839.690857	198.000000
839.725159	195.000000
839.759460	199.000000
839.793640	195.000000
839.827942	199.000000
839.862183	197.000000
839.896423	204.000000
839.930725	204.000000
839.964966	210.000000
839.999207	207.000000
840.033508	209.000000
840.067688	197.000000
840.101990	210.000000
840.136230	201.000000
840.170471	205.000000
840.204712	197.000000
840.238953	201.000000
840.273193	207.000000
840.307434	204.000000
840.341736	198.000000
840.375916	187.000000
840.410217	196.000000
840.444397	205.000000
840.478638	207.000000
840.512878	201.000000
840.547119	205.000000
840.581360	201.000000
840.615601	211.000000
840.649780	207.000000
840.684021	201.000000
840.718262	200.000000
840.752441	206.000000
840.786682	203.000000
840.820862	201.000000
840.855103	207.000000
840.889343	202.000000
840.923584	205.000000
840.957764	202.000000
840.992004	205.000000
841.026184	216.000000
841.060425	199.000000
841.094666	199.000000
841.128845	199.000000
841.163025	202.000000
841.197266	202.000000
841.231445	199.000000
841.265686	198.000000
841.299866	200.000000
841.334045	203.000000
841.368286	203.000000
841.402405	212.000000
841.436646	203.000000
841.470825	197.000000
841.505005	201.000000
841.539185	193.000000
841.573425	201.000000
841.607544	204.000000
841.641785	201.000000
841.675964	198.000000
841.710144	198.000000
841.744324	199.000000
841.778503	200.000000
841.812683	199.000000
841.846863	211.000000
841.881042	209.000000
841.915222	199.000000
841.949402	215.000000
841.983521	195.000000
842.017700	200.000000
842.051880	199.000000
842.086060	206.000000
842.120239	201.000000
842.154419	202.000000
842.188538	198.000000
842.222717	198.000000
842.256897	208.000000
842.291016	198.000000
842.325195	201.000000
842.359375	210.000000
842.393494	207.000000
842.427673	203.000000
842.461853	196.000000
842.495911	209.000000
842.530090	198.000000
842.564209	200.000000
842.598389	204.000000
842.632568	205.000000
842.666626	201.000000
842.700806	199.000000
842.734985	197.000000
842.769043	201.000000
842.803223	201.000000
842.837402	204.000000
842.871460	198.000000
842.905640	209.000000
842.939697	196.000000
842.973877	206.000000
843.007996	210.000000
843.042175	212.000000
843.076233	196.000000
843.110413	201.000000
843.144470	215.000000
843.178589	202.000000
843.212769	201.000000
843.246826	207.000000
843.280945	201.000000
843.315125	201.000000
843.349182	197.000000
843.383301	201.000000
843.417419	214.000000
843.451538	199.000000
843.485657	198.000000
843.519714	197.000000
843.553833	203.000000
843.587952	195.000000
843.622070	197.000000
843.656128	206.000000
843.690247	198.000000
843.724304	195.000000
843.758423	203.000000
843.792542	195.000000
843.826599	205.000000
843.860718	196.000000
843.894836	193.000000
843.928894	200.000000
843.963013	206.000000
843.997070	195.000000
844.031128	195.000000
844.065247	207.000000
844.099304	202.000000
844.133362	198.000000
844.167480	206.000000
844.201599	203.000000
844.235596	204.000000
844.269714	204.000000
844.303711	202.000000
844.337830	194.000000
844.371948	203.000000
844.405945	201.000000
844.440063	197.000000
844.474121	215.000000
844.508118	200.000000
844.542236	198.000000
844.576294	197.000000
844.610352	192.000000
844.644409	196.000000
844.678406	195.000000
844.712524	205.000000
844.746582	209.000000
844.780640	200.000000
844.814636	207.000000
844.848755	213.000000
844.882751	205.000000
844.916809	206.000000
844.950867	204.000000
844.984863	207.000000
845.018921	203.000000
845.052979	194.000000
845.086975	200.000000
845.121033	190.000000
845.155090	195.000000
845.189087	207.000000
845.223145	197.000000
845.257141	198.000000
845.291199	207.000000
845.325256	208.000000
845.359253	203.000000
845.393250	209.000000
845.427307	195.000000
845.461304	207.000000
845.495361	202.000000
845.529358	209.000000
845.563354	202.000000
845.597412	199.000000
845.631409	209.000000
845.665405	210.000000
845.699463	205.000000
845.733459	197.000000
845.767456	210.000000
845.801453	208.000000
845.835449	208.000000
845.869446	210.000000
845.903503	209.000000
845.937439	196.000000
845.971497	211.000000
846.005493	200.000000
846.039429	205.000000
846.073486	211.000000
846.107483	202.000000
846.141418	200.000000
846.175476	198.000000
846.209473	213.000000
846.243408	195.000000
846.277405	205.000000
846.311401	190.000000
846.345337	202.000000
846.379395	204.000000
846.413330	199.000000
846.447327	204.000000
846.481323	196.000000
846.515259	198.000000
846.549255	202.000000
846.583252	202.000000
846.617187	195.000000
846.651184	200.000000
846.685120	198.000000
846.719055	206.000000
846.753052	205.000000
846.786987	208.000000
846.820984	196.000000
846.854980	203.000000
846.888916	198.000000
846.922852	205.000000
846.956848	208.000000
846.990723	196.000000
847.024719	203.000000
847.058716	197.000000
847.092590	210.000000
847.126587	201.000000
847.160522	201.000000
847.194458	205.000000
847.228455	198.000000
847.262390	196.000000
847.296265	197.000000
847.330261	208.000000
847.364136	197.000000
847.398132	195.000000
847.432068	197.000000
847.466003	194.000000
847.499939	199.000000
847.533875	206.000000
847.567749	201.000000
847.601746	200.000000
847.635681	207.000000
847.669556	191.000000
847.703491	206.000000
847.737427	222.000000
847.771301	195.000000
847.805237	201.000000
847.839233	202.000000
847.873108	203.000000
847.907043	199.000000
847.940918	207.000000
847.974854	203.000000
848.008789	204.000000
848.042664	199.000000
848.076538	203.000000
848.110474	200.000000
848.144348	205.000000
848.178284	192.000000
848.212219	202.000000
848.246094	199.000000
848.279968	200.000000
848.313904	204.000000
848.347778	208.000000
848.381653	198.000000
848.415588	198.000000
848.449463	197.000000
848.483337	203.000000
848.517212	208.000000
848.551086	206.000000
848.585022	201.000000
848.618835	214.000000
848.652771	204.000000
848.686646	194.000000
848.720520	216.000000
848.754395	202.000000
848.788330	205.000000
848.822144	207.000000
848.856018	203.000000
848.889954	209.000000
848.923767	198.000000
848.957642	198.000000
848.991577	205.000000
849.025391	198.000000
849.059265	204.000000
849.093079	195.000000
849.126953	196.000000
849.160828	211.000000
849.194641	199.000000
849.228577	194.000000
849.262451	201.000000
849.296265	195.000000
849.330139	196.000000
849.364014	206.000000
849.397827	206.000000
849.431702	202.000000
849.465515	209.000000
849.499329	189.000000
849.533203	201.000000
849.567078	193.000000
849.600891	201.000000
849.634766	197.000000
849.668518	208.000000
849.702393	195.000000
849.736267	194.000000
849.770020	213.000000
849.803894	209.000000
849.837769	203.000000
849.871521	202.000000
849.905396	205.000000
849.939270	199.000000
849.973022	203.000000
850.006897	205.000000
850.040710	207.000000
850.074524	207.000000
850.108337	201.000000
850.142151	211.000000
850.175964	210.000000
850.209778	200.000000
850.243530	192.000000
850.277405	205.000000
850.311218	202.000000
850.344971	201.000000
850.378845	208.000000
850.412659	195.000000
850.446411	202.000000
850.480225	199.000000
850.514038	208.000000
850.547791	201.000000
850.581665	201.000000
850.615417	197.000000
850.649231	206.000000
850.683044	197.000000
850.716858	200.000000
850.750610	197.000000
850.784424	206.000000
850.818176	195.000000
850.851929	202.000000
850.885742	204.000000
850.919495	202.000000
850.953308	206.000000
850.987122	212.000000
851.020874	194.000000
851.054626	194.000000
851.088440	206.000000
851.122192	205.000000
851.156006	202.000000
851.189697	202.000000
851.223511	191.000000
851.257263	209.000000
851.291077	205.000000
851.324829	198.000000
851.358582	201.000000
851.392334	199.000000
851.426086	198.000000
851.459900	209.000000
851.493591	206.000000
851.527344	198.000000
851.561157	204.000000
851.594849	205.000000
851.628662	202.000000
851.662415	210.000000
851.696106	206.000000
851.729858	207.000000
851.763611	198.000000
851.797363	205.000000
851.831116	196.000000
851.864868	204.000000
851.898560	207.000000
851.932312	199.000000
851.966064	209.000000
851.999817	201.000000
852.033569	203.000000
852.067261	207.000000
852.101013	197.000000
852.134766	198.000000
852.168457	191.000000
852.202209	201.000000
852.235901	197.000000
852.269592	206.000000
852.303345	213.000000
852.337036	201.000000
852.370789	199.000000
852.404541	206.000000
852.438171	199.000000
852.471924	201.000000
852.505676	200.000000
852.539307	200.000000
852.573059	198.000000
852.606812	198.000000
852.640442	198.000000
852.674194	204.000000
852.707886	213.000000
852.741577	210.000000
852.775269	197.000000
852.809021	203.000000
852.842651	204.000000
852.876404	207.000000
852.910034	202.000000
852.943787	209.000000
852.977478	209.000000
853.011108	202.000000
853.044861	197.000000
853.078552	207.000000
853.112183	202.000000
853.145874	203.000000
853.179626	191.000000
853.213257	205.000000
853.246948	198.000000
853.280640	209.000000
853.314270	199.000000
853.347961	212.000000
853.381653	202.000000
853.415283	209.000000
853.448975	193.000000
853.482605	208.000000
853.516296	200.000000
853.549988	194.000000
853.583618	199.000000
853.617310	203.000000
853.651001	201.000000
853.684631	201.000000
853.718323	197.000000
853.751953	215.000000
853.785583	193.000000
853.819275	208.000000
853.852966	202.000000
853.886536	195.000000
853.920227	194.000000
853.953918	204.000000
853.987488	196.000000
854.021179	212.000000
854.054749	206.000000
854.088440	205.000000
854.122131	202.000000
854.155701	204.000000
854.189331	196.000000
854.223022	210.000000
854.256592	201.000000
854.290283	201.000000
854.323914	206.000000
854.357483	202.000000
854.391174	206.000000
854.424744	213.000000
854.458374	207.000000
854.492065	213.000000
854.525696	199.000000
854.559265	207.000000
854.592896	217.000000
854.626465	206.000000
854.660095	204.000000
854.693787	207.000000
854.727356	202.000000
854.760986	201.000000
854.794617	208.000000
854.828186	202.000000
854.861816	206.000000
854.895447	204.000000
854.929016	203.000000
854.962585	197.000000
854.996155	209.000000
855.029785	200.000000
855.063416	207.000000
855.097046	205.000000
855.130615	193.000000
855.164185	205.000000
855.197754	203.000000
855.231384	204.000000
855.264954	200.000000
855.298523	209.000000
855.332153	207.000000
855.365723	207.000000
855.399292	200.000000
855.432922	200.000000
855.466492	202.000000
855.500061	195.000000
855.533630	197.000000
855.567200	206.000000
855.600769	214.000000
855.634338	207.000000
855.667969	202.000000
855.701477	199.000000
855.735046	194.000000
855.768616	193.000000
855.802185	201.000000
855.835754	223.000000
855.869324	196.000000
855.902893	199.000000
855.936401	212.000000
855.969971	202.000000
856.003540	192.000000
856.037109	209.000000
856.070618	201.000000
856.104187	195.000000
856.137695	195.000000
856.171265	191.000000
856.204834	203.000000
856.238403	209.000000
856.271912	198.000000
856.305481	201.000000
856.338989	192.000000
856.372559	203.000000
856.406128	201.000000
856.439636	209.000000
856.473145	194.000000
856.506653	209.000000
856.540222	199.000000
856.573792	210.000000
856.607300	202.000000
856.640808	192.000000
856.674377	200.000000
856.707825	230.000000
856.741394	207.000000
856.774902	197.000000
856.808472	194.000000
856.841980	208.000000
856.875488	207.000000
856.908936	195.000000
856.942505	197.000000
856.976013	199.000000
857.009521	194.000000
857.043030	203.000000
857.076477	198.000000
857.110046	205.000000
857.143555	204.000000
857.177063	207.000000
857.210571	200.000000
857.244080	195.000000
857.277527	204.000000
857.311035	203.000000
857.344543	204.000000
857.378052	201.000000
857.411499	209.000000
857.445068	208.000000
857.478516	197.000000
857.512024	195.000000
857.545532	203.000000
857.578979	198.000000
857.612427	208.000000
857.645874	200.000000
857.679382	203.000000
857.712891	203.000000
857.746399	204.000000
857.779846	206.000000
857.813354	209.000000
857.846741	203.000000
857.880249	196.000000
857.913757	200.000000
857.947266	208.000000
857.980652	202.000000
858.014160	197.000000
858.047546	202.000000
858.081055	202.000000
858.114563	207.000000
858.147949	199.000000
858.181458	201.000000
858.214844	199.000000
858.248352	195.000000
858.281799	205.000000
858.315308	219.000000
858.348694	204.000000
858.382141	207.000000
858.415588	209.000000
858.449036	209.000000
858.482483	206.000000
858.515930	197.000000
858.549377	201.000000
858.582825	210.000000
858.616211	203.000000
858.649658	208.000000
858.683105	196.000000
858.716553	202.000000
858.750000	196.000000
858.783386	201.000000
858.816833	192.000000
858.850281	199.000000
858.883728	203.000000
858.917114	201.000000
858.950562	210.000000
858.983948	213.000000
859.017395	205.000000
859.050781	204.000000
859.084167	196.000000
859.117615	200.000000
859.151062	203.000000
859.184448	197.000000
859.217834	201.000000
859.251282	202.000000
859.284668	193.000000
859.318054	192.000000
859.351440	198.000000
859.384888	209.000000
859.418274	189.000000
859.451721	196.000000
859.485046	201.000000
859.518494	204.000000
859.551819	198.000000
859.585266	205.000000
859.618652	209.000000
859.652039	198.000000
859.685425	195.000000
859.718811	199.000000
859.752197	192.000000
859.785583	207.000000
859.819031	209.000000
859.852356	202.000000
859.885742	197.000000
859.919067	207.000000
859.952454	200.000000
859.985901	207.000000
860.019287	202.000000
860.052612	0.000000
860.085999	0.000000
860.119324	0.000000
860.152710	0.000000
860.186096	0.000000
860.219421	0.000000
860.252808	0.000000
860.286133	0.000000
860.319519	0.000000
860.352905	0.000000
860.386292	0.000000
860.419617	0.000000
860.452942	0.000000
860.486267	0.000000
860.519653	0.000000
860.553040	0.000000
860.586365	0.000000
860.619690	0.000000
860.653076	0.000000
860.686340	0.000000
860.719727	0.000000
860.753113	0.000000
860.786377	0.000000
860.819763	0.000000
860.853027	0.000000
860.886414	0.000000
860.919739	0.000000
860.953125	0.000000
860.986389	0.000000
861.019714	0.000000
861.053040	0.000000
861.086365	0.000000
861.119690	0.000000
861.153076	0.000000
861.186340	0.000000
861.219666	0.000000
861.252930	0.000000
861.286316	0.000000
861.319641	0.000000
861.352905	0.000000
861.386230	0.000000
861.419495	0.000000
861.452820	0.000000
861.486145	0.000000
861.519470	0.000000
861.552734	0.000000
861.586060	0.000000
861.619324	0.000000
861.652649	0.000000
861.685974	0.000000
861.719238	0.000000
861.752563	0.000000
861.785828	0.000000
861.819092	0.000000
861.852417	0.000000
861.885742	0.000000
861.918945	0.000000
861.952271	0.000000
861.985535	0.000000
862.018799	0.000000
862.052124	0.000000
862.085449	0.000000
862.118652	0.000000
862.151978	0.000000
862.185181	0.000000
862.218506	0.000000
862.251770	0.000000
862.285034	0.000000
862.318298	0.000000
862.351562	0.000000
862.384827	0.000000
862.418091	0.000000
862.451355	0.000000
862.484619	0.000000
862.517883	0.000000
862.551086	0.000000
862.584351	0.000000
862.617676	0.000000
862.650940	0.000000
862.684143	0.000000
862.717407	0.000000
862.750610	0.000000
862.783875	0.000000
862.817139	0.000000
862.850342	0.000000
862.883606	0.000000
862.916870	0.000000
862.950073	0.000000
862.983337	0.000000
863.016602	0.000000
863.049805	0.000000
863.083069	0.000000
863.116211	0.000000
863.149475	0.000000
863.182739	0.000000
863.216003	0.000000
863.249146	0.000000
863.282410	0.000000
863.315613	0.000000
863.348816	0.000000
863.382080	0.000000
863.415222	0.000000
863.448486	0.000000
863.481689	0.000000
863.514893	0.000000
863.548157	0.000000
863.581360	0.000000
863.614502	0.000000
863.647766	0.000000
863.680908	0.000000
863.714172	0.000000
863.747375	0.000000
863.780579	0.000000
863.813721	0.000000
863.846985	0.000000
863.880127	0.000000
863.913330	0.000000
863.946533	0.000000
863.979675	0.000000
864.012939	0.000000
