Model Number: SPM-001-M   
Serial Number: 10090201
Firmware Version: 004.17.6
Exposure Time: 500000.000000us
Data Taken on: 17-08-2020 11:16:36.196
Wavelength	Amplitude
733.770752	0.000000
733.808716	0.000000
733.846619	0.000000
733.884583	0.000000
733.922546	0.000000
733.960449	0.000000
733.998413	0.000000
734.036377	0.000000
734.074219	0.000000
734.112183	0.000000
734.150085	0.000000
734.188049	0.000000
734.226013	0.000000
734.263916	0.000000
734.301819	0.000000
734.339783	0.000000
734.377686	0.000000
734.415588	0.000000
734.453552	0.000000
734.491455	0.000000
734.529419	0.000000
734.567322	0.000000
734.605225	0.000000
734.643127	0.000000
734.681091	0.000000
734.718994	0.000000
734.756897	0.000000
734.794800	0.000000
734.832703	0.000000
734.870667	0.000000
734.908508	0.000000
734.946472	0.000000
734.984375	0.000000
735.022278	0.000000
735.060181	0.000000
735.098083	0.000000
735.135986	0.000000
735.173889	0.000000
735.211792	0.000000
735.249695	0.000000
735.287598	0.000000
735.325439	0.000000
735.363403	0.000000
735.401306	0.000000
735.439148	0.000000
735.477051	0.000000
735.515015	0.000000
735.552856	0.000000
735.590759	0.000000
735.628662	0.000000
735.666504	0.000000
735.704407	0.000000
735.742310	0.000000
735.780212	0.000000
735.818115	0.000000
735.856018	0.000000
735.893860	0.000000
735.931763	0.000000
735.969604	0.000000
736.007507	0.000000
736.045410	0.000000
736.083252	0.000000
736.121094	0.000000
736.158997	0.000000
736.196838	0.000000
736.234741	0.000000
736.272644	0.000000
736.310486	0.000000
736.348389	0.000000
736.386230	0.000000
736.424072	0.000000
736.461975	0.000000
736.499878	0.000000
736.537720	0.000000
736.575562	0.000000
736.613403	0.000000
736.651306	0.000000
736.689148	0.000000
736.726990	0.000000
736.764893	0.000000
736.802734	0.000000
736.840576	0.000000
736.878418	0.000000
736.916321	0.000000
736.954102	0.000000
736.992004	0.000000
737.029846	0.000000
737.067688	0.000000
737.105530	0.000000
737.143372	0.000000
737.181213	0.000000
737.219116	0.000000
737.256897	0.000000
737.294739	0.000000
737.332642	0.000000
737.370422	0.000000
737.408325	0.000000
737.446167	0.000000
737.483948	0.000000
737.521790	0.000000
737.559692	0.000000
737.597473	0.000000
737.635315	0.000000
737.673157	0.000000
737.710999	0.000000
737.748840	0.000000
737.786621	0.000000
737.824463	0.000000
737.862305	0.000000
737.900085	0.000000
737.937927	0.000000
737.975769	0.000000
738.013550	0.000000
738.051392	0.000000
738.089233	0.000000
738.127014	0.000000
738.164856	0.000000
738.202698	0.000000
738.240479	0.000000
738.278320	0.000000
738.316162	0.000000
738.353943	0.000000
738.391785	0.000000
738.429565	0.000000
738.467407	0.000000
738.505188	0.000000
738.542969	0.000000
738.580811	0.000000
738.618652	0.000000
738.656372	0.000000
738.694214	0.000000
738.732056	0.000000
738.769836	0.000000
738.807617	0.000000
738.845459	0.000000
738.883240	0.000000
738.921021	0.000000
738.958862	0.000000
738.996582	0.000000
739.034424	0.000000
739.072205	0.000000
739.109985	0.000000
739.147827	0.000000
739.185547	0.000000
739.223389	0.000000
739.261169	0.000000
739.298889	0.000000
739.336731	0.000000
739.374512	0.000000
739.412292	0.000000
739.450073	0.000000
739.487854	0.000000
739.525635	0.000000
739.563416	0.000000
739.601135	0.000000
739.638977	0.000000
739.676758	0.000000
739.714478	0.000000
739.752258	0.000000
739.790100	0.000000
739.827820	0.000000
739.865601	0.000000
739.903381	0.000000
739.941101	0.000000
739.978882	209.000000
740.016724	203.000000
740.054443	205.000000
740.092224	199.000000
740.130005	199.000000
740.167725	199.000000
740.205505	195.000000
740.243225	209.000000
740.281006	205.000000
740.318787	197.000000
740.356506	213.000000
740.394287	205.000000
740.432068	196.000000
740.469727	197.000000
740.507507	208.000000
740.545288	195.000000
740.583008	206.000000
740.620789	201.000000
740.658569	195.000000
740.696228	194.000000
740.734009	206.000000
740.771790	189.000000
740.809509	211.000000
740.847229	192.000000
740.884949	199.000000
740.922729	195.000000
740.960449	198.000000
740.998169	195.000000
741.035950	199.000000
741.073669	199.000000
741.111389	204.000000
741.149170	210.000000
741.186890	214.000000
741.224609	206.000000
741.262329	207.000000
741.300110	209.000000
741.337769	201.000000
741.375549	202.000000
741.413208	204.000000
741.450989	197.000000
741.488708	202.000000
741.526367	202.000000
741.564148	206.000000
741.601868	211.000000
741.639526	201.000000
741.677307	205.000000
741.715027	202.000000
741.752686	194.000000
741.790466	211.000000
741.828186	202.000000
741.865845	200.000000
741.903564	193.000000
741.941345	202.000000
741.979004	198.000000
742.016724	203.000000
742.054382	200.000000
742.092102	202.000000
742.129822	199.000000
742.167480	197.000000
742.205200	199.000000
742.242920	204.000000
742.280640	209.000000
742.318359	191.000000
742.356079	200.000000
742.393738	205.000000
742.431396	199.000000
742.469116	204.000000
742.506775	191.000000
742.544495	198.000000
742.582214	208.000000
742.619873	198.000000
742.657593	205.000000
742.695251	206.000000
742.732971	205.000000
742.770630	202.000000
742.808289	206.000000
742.846008	202.000000
742.883728	201.000000
742.921326	197.000000
742.959045	197.000000
742.996765	200.000000
743.034424	205.000000
743.072083	204.000000
743.109802	201.000000
743.147400	200.000000
743.185120	201.000000
743.222839	199.000000
743.260437	210.000000
743.298157	205.000000
743.335754	192.000000
743.373474	200.000000
743.411133	192.000000
743.448792	203.000000
743.486450	200.000000
743.524170	196.000000
743.561768	199.000000
743.599487	214.000000
743.637146	215.000000
743.674744	202.000000
743.712463	199.000000
743.750122	206.000000
743.787720	200.000000
743.825439	199.000000
743.863037	196.000000
743.900696	200.000000
743.938416	227.000000
743.976013	203.000000
744.013672	206.000000
744.051331	206.000000
744.088928	211.000000
744.126587	209.000000
744.164307	200.000000
744.201904	201.000000
744.239563	204.000000
744.277222	201.000000
744.314819	204.000000
744.352478	209.000000
744.390137	201.000000
744.427734	209.000000
744.465393	196.000000
744.502991	201.000000
744.540649	207.000000
744.578308	196.000000
744.615906	193.000000
744.653564	192.000000
744.691223	200.000000
744.728821	195.000000
744.766418	205.000000
744.804077	206.000000
744.841675	199.000000
744.879333	195.000000
744.916992	200.000000
744.954529	195.000000
744.992187	212.000000
745.029785	197.000000
745.067444	198.000000
745.105042	202.000000
745.142639	207.000000
745.180298	212.000000
745.217896	202.000000
745.255493	197.000000
745.293152	206.000000
745.330750	203.000000
745.368347	210.000000
745.405945	202.000000
745.443604	205.000000
745.481140	204.000000
745.518799	198.000000
745.556396	206.000000
745.593994	204.000000
745.631592	198.000000
745.669189	197.000000
745.706787	201.000000
745.744385	199.000000
745.781982	203.000000
745.819580	202.000000
745.857178	202.000000
745.894775	204.000000
745.932373	197.000000
745.969971	199.000000
746.007568	192.000000
746.045166	208.000000
746.082764	207.000000
746.120300	208.000000
746.157898	202.000000
746.195557	201.000000
746.233093	194.000000
746.270691	208.000000
746.308228	203.000000
746.345825	217.000000
746.383423	203.000000
746.420959	195.000000
746.458557	200.000000
746.496155	201.000000
746.533691	206.000000
746.571289	194.000000
746.608887	202.000000
746.646423	201.000000
746.684021	206.000000
746.721619	201.000000
746.759155	205.000000
746.796753	195.000000
746.834351	198.000000
746.871826	195.000000
746.909424	208.000000
746.946960	203.000000
746.984558	204.000000
747.022156	197.000000
747.059631	206.000000
747.097229	202.000000
747.134827	199.000000
747.172363	207.000000
747.209900	205.000000
747.247498	196.000000
747.285034	207.000000
747.322571	209.000000
747.360168	201.000000
747.397644	189.000000
747.435242	204.000000
747.472778	209.000000
747.510315	196.000000
747.547913	199.000000
747.585388	210.000000
747.622925	199.000000
747.660522	194.000000
747.697998	199.000000
747.735596	203.000000
747.773132	196.000000
747.810669	205.000000
747.848206	204.000000
747.885742	195.000000
747.923279	196.000000
747.960815	200.000000
747.998352	203.000000
748.035889	208.000000
748.073425	205.000000
748.110901	199.000000
748.148437	199.000000
748.185974	202.000000
748.223511	218.000000
748.261047	202.000000
748.298584	204.000000
748.336060	198.000000
748.373596	207.000000
748.411133	214.000000
748.448608	200.000000
748.486145	204.000000
748.523682	209.000000
748.561218	206.000000
748.598755	201.000000
748.636292	202.000000
748.673706	206.000000
748.711243	207.000000
748.748718	206.000000
748.786255	197.000000
748.823792	203.000000
748.861267	193.000000
748.898804	205.000000
748.936340	201.000000
748.973816	196.000000
749.011292	205.000000
749.048828	205.000000
749.086304	204.000000
749.123840	215.000000
749.161316	195.000000
749.198792	211.000000
749.236328	212.000000
749.273743	207.000000
749.311279	200.000000
749.348816	208.000000
749.386230	205.000000
749.423767	190.000000
749.461304	201.000000
749.498718	201.000000
749.536255	209.000000
749.573730	219.000000
749.611206	211.000000
749.648682	199.000000
749.686218	202.000000
749.723633	209.000000
749.761169	200.000000
749.798645	196.000000
749.836060	200.000000
749.873596	196.000000
749.911011	203.000000
749.948547	206.000000
749.986023	205.000000
750.023437	198.000000
750.060913	199.000000
750.098450	189.000000
750.135864	202.000000
750.173340	202.000000
750.210815	205.000000
750.248291	193.000000
750.285767	201.000000
750.323242	204.000000
750.360657	206.000000
750.398132	196.000000
750.435608	206.000000
750.473022	196.000000
750.510498	199.000000
750.547974	197.000000
750.585449	205.000000
750.622925	194.000000
750.660339	206.000000
750.697815	203.000000
750.735291	206.000000
750.772644	207.000000
750.810120	206.000000
750.847595	205.000000
750.885010	198.000000
750.922485	211.000000
750.959961	201.000000
750.997375	207.000000
751.034851	208.000000
751.072266	212.000000
751.109680	193.000000
751.147156	209.000000
751.184570	202.000000
751.221985	200.000000
751.259460	193.000000
751.296875	200.000000
751.334290	200.000000
751.371765	213.000000
751.409180	203.000000
751.446594	209.000000
751.484070	205.000000
751.521423	207.000000
751.558899	202.000000
751.596375	212.000000
751.633728	209.000000
751.671204	215.000000
751.708618	192.000000
751.746033	203.000000
751.783447	192.000000
751.820801	197.000000
751.858276	204.000000
751.895691	199.000000
751.933105	201.000000
751.970520	196.000000
752.007935	197.000000
752.045349	205.000000
752.082764	197.000000
752.120178	198.000000
752.157532	197.000000
752.195007	198.000000
752.232422	202.000000
752.269775	206.000000
752.307190	202.000000
752.344543	195.000000
752.382019	199.000000
752.419434	202.000000
752.456787	202.000000
752.494202	210.000000
752.531616	206.000000
752.568970	209.000000
752.606384	203.000000
752.643799	205.000000
752.681152	213.000000
752.718567	205.000000
752.755981	197.000000
752.793335	205.000000
752.830750	198.000000
752.868164	212.000000
752.905518	199.000000
752.942932	207.000000
752.980225	197.000000
753.017639	204.000000
753.055054	207.000000
753.092407	202.000000
753.129822	208.000000
753.167175	207.000000
753.204529	199.000000
753.241943	197.000000
753.279358	201.000000
753.316650	202.000000
753.354065	206.000000
753.391479	205.000000
753.428772	214.000000
753.466187	201.000000
753.503479	198.000000
753.540894	201.000000
753.578308	196.000000
753.615601	193.000000
753.653015	205.000000
753.690369	194.000000
753.727722	197.000000
753.765076	201.000000
753.802490	190.000000
753.839783	194.000000
753.877136	200.000000
753.914551	215.000000
753.951843	199.000000
753.989258	209.000000
754.026611	204.000000
754.063904	209.000000
754.101257	198.000000
754.138611	192.000000
754.175964	204.000000
754.213318	216.000000
754.250610	195.000000
754.288025	207.000000
754.325378	195.000000
754.362671	207.000000
754.400024	198.000000
754.437378	214.000000
754.474670	209.000000
754.512085	201.000000
754.549438	204.000000
754.586731	201.000000
754.624084	199.000000
754.661438	197.000000
754.698730	207.000000
754.736084	203.000000
754.773376	200.000000
754.810730	202.000000
754.848083	197.000000
754.885315	208.000000
754.922668	191.000000
754.960022	194.000000
754.997314	207.000000
755.034668	199.000000
755.072021	199.000000
755.109253	199.000000
755.146606	206.000000
755.183960	201.000000
755.221252	213.000000
755.258545	209.000000
755.295898	211.000000
755.333191	212.000000
755.370544	202.000000
755.407776	200.000000
755.445129	203.000000
755.482422	208.000000
755.519714	203.000000
755.557068	198.000000
755.594360	193.000000
755.631653	211.000000
755.668945	216.000000
755.706299	207.000000
755.743530	221.000000
755.780884	219.000000
755.818176	212.000000
755.855408	210.000000
755.892761	210.000000
755.930054	207.000000
755.967346	212.000000
756.004639	212.000000
756.041870	209.000000
756.079224	210.000000
756.116516	203.000000
756.153748	214.000000
756.191040	219.000000
756.228394	209.000000
756.265625	206.000000
756.302917	212.000000
756.340210	206.000000
756.377441	214.000000
756.414795	217.000000
756.452087	207.000000
756.489319	201.000000
756.526611	211.000000
756.563843	210.000000
756.601135	214.000000
756.638428	217.000000
756.675659	209.000000
756.712952	216.000000
756.750244	213.000000
756.787476	213.000000
756.824768	216.000000
756.862061	208.000000
756.899292	255.000000
756.936584	213.000000
756.973816	223.000000
757.011047	226.000000
757.048340	207.000000
757.085632	210.000000
757.122864	233.000000
757.160156	207.000000
757.197327	218.000000
757.234619	218.000000
757.271912	210.000000
757.309082	218.000000
757.346375	210.000000
757.383667	218.000000
757.420837	215.000000
757.458130	213.000000
757.495422	215.000000
757.532593	217.000000
757.569885	208.000000
757.607117	207.000000
757.644348	218.000000
757.681580	225.000000
757.718811	204.000000
757.756042	215.000000
757.793335	213.000000
757.830505	214.000000
757.867798	212.000000
757.905029	212.000000
757.942200	218.000000
757.979492	210.000000
758.016724	214.000000
758.053894	215.000000
758.091187	236.000000
758.128418	211.000000
758.165588	212.000000
758.202820	227.000000
758.240112	217.000000
758.277283	224.000000
758.314514	219.000000
758.351685	215.000000
758.388916	228.000000
758.426147	226.000000
758.463379	231.000000
758.500610	219.000000
758.537842	219.000000
758.575012	226.000000
758.612244	213.000000
758.649475	237.000000
758.686646	216.000000
758.723877	224.000000
758.761108	232.000000
758.798279	217.000000
758.835510	219.000000
758.872742	232.000000
758.909851	222.000000
758.947083	227.000000
758.984253	228.000000
759.021484	233.000000
759.058716	225.000000
759.095886	229.000000
759.133057	222.000000
759.170288	223.000000
759.207458	222.000000
759.244690	241.000000
759.281860	230.000000
759.319031	226.000000
759.356262	225.000000
759.393433	222.000000
759.430603	224.000000
759.467773	224.000000
759.505005	228.000000
759.542175	233.000000
759.579346	222.000000
759.616516	230.000000
759.653687	226.000000
759.690918	223.000000
759.728027	227.000000
759.765259	224.000000
759.802429	228.000000
759.839539	225.000000
759.876770	234.000000
759.913940	239.000000
759.951111	227.000000
759.988281	226.000000
760.025452	225.000000
760.062561	223.000000
760.099792	237.000000
760.136963	231.000000
760.174072	224.000000
760.211243	222.000000
760.248413	226.000000
760.285583	226.000000
760.322754	245.000000
760.359863	234.000000
760.397034	237.000000
760.434204	228.000000
760.471375	230.000000
760.508545	228.000000
760.545715	229.000000
760.582825	224.000000
760.619995	235.000000
760.657166	225.000000
760.694275	240.000000
760.731445	233.000000
760.768555	238.000000
760.805664	230.000000
760.842834	234.000000
760.879944	233.000000
760.917114	240.000000
760.954285	232.000000
760.991394	232.000000
761.028564	239.000000
761.065674	238.000000
761.102783	232.000000
761.139954	240.000000
761.177124	239.000000
761.214172	248.000000
761.251343	235.000000
761.288452	240.000000
761.325562	241.000000
761.362732	236.000000
761.399841	236.000000
761.436951	246.000000
761.474121	235.000000
761.511169	245.000000
761.548340	250.000000
761.585449	244.000000
761.622559	248.000000
761.659668	248.000000
761.696838	253.000000
761.733887	244.000000
761.771057	246.000000
761.808167	245.000000
761.845276	252.000000
761.882385	257.000000
761.919434	252.000000
761.956604	270.000000
761.993713	247.000000
762.030762	262.000000
762.067871	253.000000
762.105042	252.000000
762.142090	265.000000
762.179199	256.000000
762.216309	261.000000
762.253418	275.000000
762.290527	268.000000
762.327637	258.000000
762.364685	250.000000
762.401794	259.000000
762.438904	258.000000
762.475952	255.000000
762.513062	252.000000
762.550110	252.000000
762.587219	272.000000
762.624329	265.000000
762.661377	259.000000
762.698486	262.000000
762.735596	264.000000
762.772644	253.000000
762.809753	254.000000
762.846863	264.000000
762.883911	264.000000
762.921021	268.000000
762.958069	261.000000
762.995117	269.000000
763.032227	273.000000
763.069336	257.000000
763.106323	260.000000
763.143433	265.000000
763.180481	268.000000
763.217590	272.000000
763.254639	261.000000
763.291687	266.000000
763.328735	275.000000
763.365845	265.000000
763.402893	263.000000
763.439941	272.000000
763.477051	275.000000
763.514038	274.000000
763.551147	274.000000
763.588196	278.000000
763.625244	271.000000
763.662292	275.000000
763.699402	284.000000
763.736389	276.000000
763.773499	283.000000
763.810486	275.000000
763.847534	281.000000
763.884644	287.000000
763.921631	269.000000
763.958679	285.000000
763.995728	278.000000
764.032776	287.000000
764.069824	273.000000
764.106873	286.000000
764.143860	283.000000
764.180969	283.000000
764.218018	294.000000
764.255005	279.000000
764.292053	282.000000
764.329102	298.000000
764.366089	300.000000
764.403137	295.000000
764.440125	287.000000
764.477173	297.000000
764.514221	292.000000
764.551208	295.000000
764.588257	282.000000
764.625305	294.000000
764.662292	298.000000
764.699341	307.000000
764.736389	292.000000
764.773376	318.000000
764.810425	305.000000
764.847473	312.000000
764.884399	307.000000
764.921448	314.000000
764.958435	312.000000
764.995483	303.000000
765.032532	312.000000
765.069458	300.000000
765.106506	299.000000
765.143555	301.000000
765.180481	304.000000
765.217529	316.000000
765.254578	298.000000
765.291504	313.000000
765.328552	313.000000
765.365540	304.000000
765.402527	325.000000
765.439575	309.000000
765.476501	310.000000
765.513550	301.000000
765.550537	313.000000
765.587463	304.000000
765.624512	305.000000
765.661499	295.000000
765.698486	319.000000
765.735474	301.000000
765.772461	317.000000
765.809448	323.000000
765.846436	314.000000
765.883423	322.000000
765.920410	318.000000
765.957397	311.000000
765.994385	318.000000
766.031311	329.000000
766.068359	321.000000
766.105286	321.000000
766.142273	331.000000
766.179260	316.000000
766.216187	312.000000
766.253174	309.000000
766.290161	318.000000
766.327148	328.000000
766.364136	325.000000
766.401123	343.000000
766.438049	322.000000
766.475037	345.000000
766.512024	338.000000
766.548950	357.000000
766.585937	346.000000
766.622864	344.000000
766.659790	340.000000
766.696777	335.000000
766.733704	349.000000
766.770691	347.000000
766.807678	351.000000
766.844604	353.000000
766.881531	350.000000
766.918518	363.000000
766.955444	355.000000
766.992432	357.000000
767.029358	362.000000
767.066284	359.000000
767.103271	364.000000
767.140198	383.000000
767.177124	371.000000
767.214050	362.000000
767.251038	368.000000
767.287964	364.000000
767.324890	361.000000
767.361816	369.000000
767.398743	375.000000
767.435730	366.000000
767.472595	370.000000
767.509583	383.000000
767.546509	363.000000
767.583374	381.000000
767.620361	363.000000
767.657288	377.000000
767.694214	373.000000
767.731140	370.000000
767.768066	376.000000
767.804993	381.000000
767.841919	367.000000
767.878845	385.000000
767.915710	386.000000
767.952698	385.000000
767.989563	394.000000
768.026489	393.000000
768.063416	379.000000
768.100281	387.000000
768.137207	401.000000
768.174133	398.000000
768.211060	406.000000
768.247986	393.000000
768.284912	392.000000
768.321777	395.000000
768.358704	394.000000
768.395630	402.000000
768.432495	398.000000
768.469421	402.000000
768.506348	412.000000
768.543152	411.000000
768.580078	407.000000
768.616943	414.000000
768.653870	417.000000
768.690796	421.000000
768.727661	412.000000
768.764587	413.000000
768.801453	402.000000
768.838318	417.000000
768.875244	417.000000
768.912109	428.000000
768.948975	415.000000
768.985901	418.000000
769.022766	421.000000
769.059631	427.000000
769.096558	419.000000
769.133362	421.000000
769.170288	416.000000
769.207214	419.000000
769.244019	431.000000
769.280945	425.000000
769.317810	445.000000
769.354675	428.000000
769.391541	443.000000
769.428406	444.000000
769.465271	454.000000
769.502136	435.000000
769.539062	444.000000
769.575867	453.000000
769.612732	457.000000
769.649597	457.000000
769.686462	454.000000
769.723328	448.000000
769.760193	443.000000
769.797058	457.000000
769.833923	465.000000
769.870728	456.000000
769.907593	459.000000
769.944519	453.000000
769.981323	469.000000
770.018188	474.000000
770.055054	470.000000
770.091858	462.000000
770.128723	480.000000
770.165588	481.000000
770.202393	457.000000
770.239258	479.000000
770.276062	465.000000
770.312927	473.000000
770.349792	473.000000
770.386597	476.000000
770.423462	493.000000
770.460327	499.000000
770.497131	476.000000
770.533997	476.000000
770.570862	494.000000
770.607605	487.000000
770.644470	482.000000
770.681335	501.000000
770.718140	487.000000
770.754944	492.000000
770.791809	482.000000
770.828613	485.000000
770.865479	487.000000
770.902222	506.000000
770.939087	496.000000
770.975952	483.000000
771.012695	499.000000
771.049561	507.000000
771.086365	491.000000
771.123169	495.000000
771.159973	495.000000
771.196838	502.000000
771.233582	507.000000
771.270447	503.000000
771.307251	501.000000
771.344055	504.000000
771.380859	511.000000
771.417664	507.000000
771.454468	518.000000
771.491272	517.000000
771.528076	507.000000
771.564880	504.000000
771.601685	531.000000
771.638428	517.000000
771.675293	529.000000
771.712097	513.000000
771.748840	532.000000
771.785645	514.000000
771.822449	525.000000
771.859253	526.000000
771.896057	525.000000
771.932861	548.000000
771.969604	533.000000
772.006409	523.000000
772.043213	549.000000
772.079956	546.000000
772.116760	546.000000
772.153503	546.000000
772.190308	569.000000
772.227112	545.000000
772.263855	546.000000
772.300659	550.000000
772.337463	565.000000
772.374207	549.000000
772.411011	559.000000
772.447754	559.000000
772.484497	565.000000
772.521301	568.000000
772.558105	561.000000
772.594849	572.000000
772.631592	585.000000
772.668396	576.000000
772.705139	569.000000
772.741882	564.000000
772.778625	577.000000
772.815430	599.000000
772.852173	600.000000
772.888916	611.000000
772.925720	606.000000
772.962463	616.000000
772.999207	603.000000
773.035950	617.000000
773.072754	630.000000
773.109436	616.000000
773.146240	610.000000
773.182922	612.000000
773.219727	616.000000
773.256470	624.000000
773.293152	619.000000
773.329956	622.000000
773.366699	631.000000
773.403381	628.000000
773.440186	615.000000
773.476929	625.000000
773.513611	636.000000
773.550354	647.000000
773.587158	629.000000
773.623840	632.000000
773.660583	637.000000
773.697327	655.000000
773.734009	657.000000
773.770813	653.000000
773.807495	638.000000
773.844238	650.000000
773.880981	656.000000
773.917664	643.000000
773.954407	663.000000
773.991150	667.000000
774.027832	667.000000
774.064575	665.000000
774.101318	668.000000
774.138000	665.000000
774.174744	671.000000
774.211487	683.000000
774.248108	672.000000
774.284851	672.000000
774.321594	685.000000
774.358276	680.000000
774.395020	701.000000
774.431702	698.000000
774.468384	704.000000
774.505127	685.000000
774.541809	698.000000
774.578491	687.000000
774.615234	707.000000
774.651917	700.000000
774.688599	716.000000
774.725342	729.000000
774.762024	720.000000
774.798706	711.000000
774.835449	719.000000
774.872070	729.000000
774.908813	744.000000
774.945496	729.000000
774.982178	737.000000
775.018860	719.000000
775.055542	715.000000
775.092224	725.000000
775.128967	747.000000
775.165588	759.000000
775.202271	733.000000
775.239014	737.000000
775.275635	733.000000
775.312317	737.000000
775.349060	751.000000
775.385681	765.000000
775.422363	757.000000
775.459045	748.000000
775.495667	741.000000
775.532410	747.000000
775.569092	765.000000
775.605713	776.000000
775.642395	779.000000
775.679016	762.000000
775.715698	756.000000
775.752380	765.000000
775.789001	763.000000
775.825684	766.000000
775.862366	773.000000
775.898987	791.000000
775.935669	771.000000
775.972351	792.000000
776.008972	786.000000
776.045654	793.000000
776.082336	789.000000
776.118958	787.000000
776.155640	786.000000
776.192322	785.000000
776.228882	782.000000
776.265564	806.000000
776.302185	802.000000
776.338867	806.000000
776.375488	794.000000
776.412109	787.000000
776.448792	790.000000
776.485413	824.000000
776.522034	802.000000
776.558716	804.000000
776.595337	808.000000
776.631958	799.000000
776.668579	789.000000
776.705261	809.000000
776.741882	799.000000
776.778503	812.000000
776.815186	797.000000
776.851746	812.000000
776.888367	775.000000
776.924988	799.000000
776.961609	794.000000
776.998291	810.000000
777.034851	799.000000
777.071472	812.000000
777.108154	806.000000
777.144714	813.000000
777.181335	831.000000
777.218018	815.000000
777.254578	833.000000
777.291199	830.000000
777.327759	847.000000
777.364380	846.000000
777.401062	858.000000
777.437622	890.000000
777.474243	867.000000
777.510864	882.000000
777.547424	873.000000
777.584045	875.000000
777.620667	884.000000
777.657227	879.000000
777.693848	887.000000
777.730469	902.000000
777.767029	892.000000
777.803650	892.000000
777.840271	882.000000
777.876831	884.000000
777.913452	890.000000
777.950012	874.000000
777.986633	882.000000
778.023193	876.000000
778.059753	877.000000
778.096375	871.000000
778.132996	898.000000
778.169556	901.000000
778.206116	888.000000
778.242737	891.000000
778.279297	903.000000
778.315857	889.000000
778.352478	916.000000
778.389038	912.000000
778.425598	908.000000
778.462219	914.000000
778.498718	929.000000
778.535339	923.000000
778.571838	937.000000
778.608459	943.000000
778.645020	923.000000
778.681580	927.000000
778.718140	933.000000
778.754761	915.000000
778.791260	937.000000
778.827881	935.000000
778.864441	930.000000
778.900940	949.000000
778.937561	949.000000
778.974121	950.000000
779.010620	942.000000
779.047241	948.000000
779.083801	954.000000
779.120300	983.000000
779.156860	995.000000
779.193359	1001.000000
779.229980	1001.000000
779.266541	1004.000000
779.303040	1009.000000
779.339600	1001.000000
779.376160	1012.000000
779.412659	1007.000000
779.449219	1015.000000
779.485779	1006.000000
779.522278	999.000000
779.558838	1015.000000
779.595398	1008.000000
779.631897	1006.000000
779.668457	1000.000000
779.705017	1035.000000
779.741516	1011.000000
779.778076	995.000000
779.814575	993.000000
779.851074	1012.000000
779.887634	1010.000000
779.924133	1026.000000
779.960693	999.000000
779.997253	1020.000000
780.033691	1017.000000
780.070251	1025.000000
780.106812	1051.000000
780.143250	1045.000000
780.179810	1032.000000
780.216370	1044.000000
780.252808	1054.000000
780.289368	1056.000000
780.325867	1072.000000
780.362366	1076.000000
780.398865	1088.000000
780.435364	1094.000000
780.471863	1073.000000
780.508423	1065.000000
780.544861	1098.000000
780.581421	1086.000000
780.617920	1071.000000
780.654419	1087.000000
780.690918	1094.000000
780.727417	1075.000000
780.763916	1097.000000
780.800415	1122.000000
780.836914	1106.000000
780.873352	1132.000000
780.909912	1123.000000
780.946411	1106.000000
780.982849	1121.000000
781.019348	1126.000000
781.055786	1099.000000
781.092346	1108.000000
781.128845	1119.000000
781.165283	1120.000000
781.201782	1113.000000
781.238281	1097.000000
781.274719	1130.000000
781.311218	1152.000000
781.347717	1166.000000
781.384155	1128.000000
781.420654	1142.000000
781.457092	1148.000000
781.493591	1148.000000
781.530090	1156.000000
781.566528	1149.000000
781.602966	1150.000000
781.639465	1135.000000
781.675903	1124.000000
781.712402	1133.000000
781.748901	1142.000000
781.785278	1126.000000
781.821777	1124.000000
781.858276	1119.000000
781.894714	1126.000000
781.931152	1136.000000
781.967651	1136.000000
782.004089	1119.000000
782.040527	1123.000000
782.076965	1118.000000
782.113403	1113.000000
782.149902	1117.000000
782.186340	1119.000000
782.222778	1147.000000
782.259277	1128.000000
782.295654	1131.000000
782.332092	1140.000000
782.368591	1140.000000
782.404968	1160.000000
782.441467	1185.000000
782.477905	1187.000000
782.514282	1189.000000
782.550781	1188.000000
782.587219	1158.000000
782.623596	1178.000000
782.660095	1178.000000
782.696472	1203.000000
782.732910	1201.000000
782.769348	1190.000000
782.805786	1200.000000
782.842224	1199.000000
782.878662	1210.000000
782.915039	1226.000000
782.951477	1233.000000
782.987915	1219.000000
783.024292	1218.000000
783.060730	1208.000000
783.097168	1217.000000
783.133545	1223.000000
783.169983	1215.000000
783.206421	1201.000000
783.242798	1199.000000
783.279236	1167.000000
783.315613	1177.000000
783.352051	1187.000000
783.388489	1185.000000
783.424866	1187.000000
783.461304	1192.000000
783.497681	1199.000000
783.534058	1194.000000
783.570496	1213.000000
783.606934	1199.000000
783.643250	1208.000000
783.679687	1199.000000
783.716125	1197.000000
783.752441	1221.000000
783.788879	1224.000000
783.825317	1261.000000
783.861633	1257.000000
783.898071	1249.000000
783.934448	1275.000000
783.970825	1292.000000
784.007263	1294.000000
784.043579	1306.000000
784.080017	1307.000000
784.116394	1274.000000
784.152710	1282.000000
784.189148	1306.000000
784.225525	1281.000000
784.261902	1261.000000
784.298279	1261.000000
784.334656	1247.000000
784.371033	1221.000000
784.407410	1229.000000
784.443787	1210.000000
784.480164	1221.000000
784.516541	1225.000000
784.552856	1232.000000
784.589233	1200.000000
784.625610	1189.000000
784.661987	1224.000000
784.698364	1228.000000
784.734741	1245.000000
784.771057	1262.000000
784.807434	1256.000000
784.843811	1254.000000
784.880127	1228.000000
784.916504	1279.000000
784.952881	1303.000000
784.989197	1315.000000
785.025574	1337.000000
785.061951	1331.000000
785.098267	1365.000000
785.134644	1386.000000
785.170959	1403.000000
785.207275	1438.000000
785.243652	1455.000000
785.279968	1393.000000
785.316345	1367.000000
785.352722	1352.000000
785.388977	1342.000000
785.425354	1317.000000
785.461731	1337.000000
785.498047	1314.000000
785.534363	1258.000000
785.570679	1219.000000
785.606995	1224.000000
785.643372	1219.000000
785.679687	1241.000000
785.716003	1219.000000
785.752380	1195.000000
785.788635	1179.000000
785.825012	1198.000000
785.861328	1189.000000
785.897644	1211.000000
785.933960	1230.000000
785.970337	1231.000000
786.006592	1235.000000
786.042908	1215.000000
786.079285	1201.000000
786.115540	1213.000000
786.151855	1198.000000
786.188171	1165.000000
786.224487	1132.000000
786.260803	1099.000000
786.297119	1029.000000
786.333435	977.000000
786.369751	941.000000
786.406006	886.000000
786.442322	830.000000
786.478638	749.000000
786.514954	710.000000
786.551270	657.000000
786.587585	629.000000
786.623840	585.000000
786.660156	564.000000
786.696472	541.000000
786.732727	518.000000
786.769043	523.000000
786.805298	515.000000
786.841614	539.000000
786.877930	573.000000
786.914124	587.000000
786.950439	649.000000
786.986755	685.000000
787.023010	741.000000
787.059326	789.000000
787.095642	841.000000
787.131836	926.000000
787.168152	970.000000
787.204468	1035.000000
787.240723	1084.000000
787.276978	1136.000000
787.313293	1210.000000
787.349548	1271.000000
787.385803	1305.000000
787.422058	1333.000000
787.458313	1356.000000
787.494629	1373.000000
787.530823	1383.000000
787.567139	1382.000000
787.603455	1405.000000
787.639648	1396.000000
787.675903	1382.000000
787.712219	1355.000000
787.748413	1345.000000
787.784729	1346.000000
787.820984	1324.000000
787.857178	1353.000000
787.893494	1334.000000
787.929749	1315.000000
787.965942	1315.000000
788.002258	1330.000000
788.038452	1334.000000
788.074707	1351.000000
788.110962	1370.000000
788.147217	1343.000000
788.183472	1352.000000
788.219727	1352.000000
788.255920	1369.000000
788.292175	1396.000000
788.328430	1413.000000
788.364624	1420.000000
788.400879	1411.000000
788.437134	1420.000000
788.473328	1403.000000
788.509583	1419.000000
788.545837	1418.000000
788.582031	1432.000000
788.618286	1447.000000
788.654480	1446.000000
788.690735	1440.000000
788.726990	1454.000000
788.763184	1429.000000
788.799377	1457.000000
788.835632	1445.000000
788.871826	1499.000000
788.908081	1460.000000
788.944336	1461.000000
788.980469	1463.000000
789.016724	1461.000000
789.052979	1471.000000
789.089111	1463.000000
789.125366	1475.000000
789.161621	1427.000000
789.197754	1438.000000
789.234009	1409.000000
789.270142	1419.000000
789.306396	1424.000000
789.342590	1427.000000
789.378784	1403.000000
789.414978	1403.000000
789.451233	1404.000000
789.487366	1397.000000
789.523621	1399.000000
789.559814	1398.000000
789.595947	1410.000000
789.632202	1416.000000
789.668335	1401.000000
789.704529	1410.000000
789.740784	1422.000000
789.776917	1455.000000
789.813110	1442.000000
789.849304	1477.000000
789.885498	1452.000000
789.921692	1457.000000
789.957886	1468.000000
789.994019	1447.000000
790.030212	1485.000000
790.066406	1497.000000
790.102539	1482.000000
790.138733	1483.000000
790.174927	1448.000000
790.211060	1460.000000
790.247253	1477.000000
790.283386	1492.000000
790.319580	1483.000000
790.355774	1405.000000
790.391907	1317.000000
790.428101	1140.000000
790.464294	938.000000
790.500427	816.000000
790.536621	775.000000
790.572754	848.000000
790.608887	942.000000
790.645081	992.000000
790.681274	1044.000000
790.717346	1093.000000
790.753540	1124.000000
790.789734	1155.000000
790.825867	1162.000000
790.862000	1154.000000
790.898132	1176.000000
790.934265	1208.000000
790.970459	1218.000000
791.006592	1264.000000
791.042725	1286.000000
791.078918	1291.000000
791.114990	1286.000000
791.151184	1273.000000
791.187317	1317.000000
791.223389	1346.000000
791.259583	1343.000000
791.295715	1355.000000
791.331848	1365.000000
791.367981	1367.000000
791.404114	1375.000000
791.440247	1363.000000
791.476379	1396.000000
791.512451	1387.000000
791.548584	1388.000000
791.584778	1383.000000
791.620850	1394.000000
791.656982	1393.000000
791.693115	1398.000000
791.729187	1412.000000
791.765381	1451.000000
791.801514	1454.000000
791.837585	1433.000000
791.873718	1392.000000
791.909851	1407.000000
791.945923	1439.000000
791.982056	1442.000000
792.018188	1456.000000
792.054260	1457.000000
792.090393	1439.000000
792.126465	1424.000000
792.162598	1401.000000
792.198669	1431.000000
792.234741	1474.000000
792.270874	1456.000000
792.307007	1423.000000
792.343079	1389.000000
792.379150	1402.000000
792.415283	1388.000000
792.451355	1426.000000
792.487488	1414.000000
792.523560	1406.000000
792.559631	1405.000000
792.595764	1376.000000
792.631836	1378.000000
792.667908	1392.000000
792.703979	1376.000000
792.740051	1388.000000
792.776184	1397.000000
792.812256	1389.000000
792.848328	1389.000000
792.884399	1393.000000
792.920471	1391.000000
792.956543	1406.000000
792.992615	1411.000000
793.028748	1417.000000
793.064758	1391.000000
793.100830	1393.000000
793.136963	1390.000000
793.172974	1390.000000
793.209045	1407.000000
793.245178	1426.000000
793.281189	1409.000000
793.317261	1413.000000
793.353271	1364.000000
793.389404	1395.000000
793.425476	1408.000000
793.461487	1388.000000
793.497559	1405.000000
793.533630	1393.000000
793.569641	1342.000000
793.605713	1346.000000
793.641785	1336.000000
793.677795	1370.000000
793.713867	1379.000000
793.749878	1380.000000
793.785950	1405.000000
793.822021	1380.000000
793.858032	1351.000000
793.894104	1365.000000
793.930176	1381.000000
793.966187	1412.000000
794.002258	1394.000000
794.038269	1388.000000
794.074280	1389.000000
794.110352	1404.000000
794.146423	1395.000000
794.182373	1402.000000
794.218445	1415.000000
794.254517	1411.000000
794.290466	1393.000000
794.326538	1352.000000
794.362549	1344.000000
794.398560	1346.000000
794.434631	1335.000000
794.470581	1318.000000
794.506653	1307.000000
794.542664	1303.000000
794.578674	1318.000000
794.614685	1296.000000
794.650757	1301.000000
794.686707	1318.000000
794.722778	1317.000000
794.758789	1330.000000
794.794739	1303.000000
794.830811	1321.000000
794.866821	1339.000000
794.902771	1360.000000
794.938843	1345.000000
794.974792	1350.000000
795.010803	1369.000000
795.046814	1358.000000
795.082825	1321.000000
795.118835	1348.000000
795.154846	1323.000000
795.190796	1340.000000
795.226807	1346.000000
795.262817	1345.000000
795.298767	1331.000000
795.334778	1308.000000
795.370850	1301.000000
795.406799	1298.000000
795.442810	1299.000000
795.478821	1290.000000
795.514709	1282.000000
795.550720	1289.000000
795.586670	1260.000000
795.622681	1266.000000
795.658691	1297.000000
795.694641	1304.000000
795.730652	1312.000000
795.766663	1332.000000
795.802551	1307.000000
795.838562	1320.000000
795.874573	1308.000000
795.910522	1334.000000
795.946472	1311.000000
795.982483	1333.000000
796.018433	1309.000000
796.054382	1309.000000
796.090393	1278.000000
796.126282	1281.000000
796.162292	1284.000000
796.198242	1289.000000
796.234192	1276.000000
796.270203	1255.000000
796.306091	1258.000000
796.342041	1278.000000
796.378052	1269.000000
796.413940	1274.000000
796.449951	1286.000000
796.485901	1264.000000
796.521790	1233.000000
796.557800	1263.000000
796.593689	1275.000000
796.629639	1291.000000
796.665649	1305.000000
796.701599	1297.000000
796.737488	1278.000000
796.773437	1276.000000
796.809387	1284.000000
796.845337	1315.000000
796.881287	1331.000000
796.917175	1316.000000
796.953125	1317.000000
796.989075	1293.000000
797.024963	1272.000000
797.060913	1273.000000
797.096863	1288.000000
797.132751	1294.000000
797.168701	1268.000000
797.204590	1272.000000
797.240540	1245.000000
797.276489	1223.000000
797.312439	1238.000000
797.348328	1240.000000
797.384277	1263.000000
797.420166	1265.000000
797.456055	1239.000000
797.492004	1211.000000
797.527893	1233.000000
797.563843	1212.000000
797.599731	1232.000000
797.635620	1249.000000
797.671570	1265.000000
797.707520	1236.000000
797.743347	1225.000000
797.779297	1236.000000
797.815125	1246.000000
797.851074	1249.000000
797.887024	1272.000000
797.922913	1238.000000
797.958801	1235.000000
797.994690	1193.000000
798.030579	1201.000000
798.066467	1227.000000
798.102356	1233.000000
798.138245	1227.000000
798.174133	1232.000000
798.210083	1218.000000
798.245911	1205.000000
798.281799	1193.000000
798.317749	1198.000000
798.353577	1225.000000
798.389465	1211.000000
798.425293	1209.000000
798.461243	1197.000000
798.497131	1185.000000
798.532959	1199.000000
798.568848	1214.000000
798.604736	1230.000000
798.640564	1179.000000
798.676453	1184.000000
798.712402	1171.000000
798.748230	1164.000000
798.784119	1160.000000
798.820007	1169.000000
798.855835	1199.000000
798.891724	1180.000000
798.927551	1165.000000
798.963379	1173.000000
798.999268	1153.000000
799.035095	1164.000000
799.070984	1169.000000
799.106873	1157.000000
799.142700	1190.000000
799.178528	1145.000000
799.214417	1149.000000
799.250244	1170.000000
799.286133	1172.000000
799.321960	1180.000000
799.357788	1160.000000
799.393677	1148.000000
799.429504	1152.000000
799.465332	1146.000000
799.501221	1159.000000
799.537048	1163.000000
799.572876	1182.000000
799.608704	1151.000000
799.644531	1158.000000
799.680359	1161.000000
799.716248	1155.000000
799.752014	1168.000000
799.787903	1153.000000
799.823730	1160.000000
799.859558	1141.000000
799.895386	1128.000000
799.931213	1096.000000
799.967041	1113.000000
800.002869	1130.000000
800.038696	1142.000000
800.074463	1137.000000
800.110352	1108.000000
800.146179	1101.000000
800.181946	1120.000000
800.217773	1120.000000
800.253540	1117.000000
800.289429	1110.000000
800.325256	1128.000000
800.361023	1088.000000
800.396851	1094.000000
800.432678	1089.000000
800.468445	1094.000000
800.504272	1110.000000
800.540100	1100.000000
800.575867	1089.000000
800.611694	1077.000000
800.647461	1058.000000
800.683289	1063.000000
800.719116	1076.000000
800.754883	1067.000000
800.790649	1063.000000
800.826477	1066.000000
800.862244	1072.000000
800.898071	1030.000000
800.933838	1009.000000
800.969604	1031.000000
801.005432	1040.000000
801.041199	1042.000000
801.076965	1030.000000
801.112793	999.000000
801.148560	995.000000
801.184326	1010.000000
801.220154	1013.000000
801.255859	996.000000
801.291687	1007.000000
801.327454	987.000000
801.363281	993.000000
801.398987	971.000000
801.434814	961.000000
801.470520	980.000000
801.506287	965.000000
801.542114	959.000000
801.577820	973.000000
801.613647	949.000000
801.649414	949.000000
801.685120	954.000000
801.720886	977.000000
801.756714	950.000000
801.792419	951.000000
801.828186	950.000000
801.863892	950.000000
801.899719	935.000000
801.935486	947.000000
801.971252	951.000000
802.006958	956.000000
802.042725	933.000000
802.078430	947.000000
802.114197	937.000000
802.149963	956.000000
802.185669	937.000000
802.221436	936.000000
802.257202	927.000000
802.292908	929.000000
802.328674	935.000000
802.364441	926.000000
802.400146	917.000000
802.435913	930.000000
802.471558	927.000000
802.507324	914.000000
802.543091	907.000000
802.578796	915.000000
802.614502	933.000000
802.650269	938.000000
802.685974	914.000000
802.721741	936.000000
802.757446	944.000000
802.793152	929.000000
802.828918	912.000000
802.864624	926.000000
802.900330	926.000000
802.936035	930.000000
802.971802	930.000000
803.007446	924.000000
803.043213	899.000000
803.078857	906.000000
803.114624	880.000000
803.150330	901.000000
803.185974	891.000000
803.221741	881.000000
803.257446	889.000000
803.293152	884.000000
803.328857	877.000000
803.364563	882.000000
803.400208	878.000000
803.435974	892.000000
803.471680	867.000000
803.507324	854.000000
803.543030	860.000000
803.578735	863.000000
803.614441	851.000000
803.650146	853.000000
803.685791	852.000000
803.721497	853.000000
803.757202	844.000000
803.792847	837.000000
803.828552	827.000000
803.864258	829.000000
803.899902	834.000000
803.935608	824.000000
803.971313	824.000000
804.006958	812.000000
804.042664	809.000000
804.078308	813.000000
804.113953	809.000000
804.149658	835.000000
804.185364	807.000000
804.221008	814.000000
804.256714	805.000000
804.292297	799.000000
804.328003	791.000000
804.363708	787.000000
804.399292	797.000000
804.434998	791.000000
804.470703	786.000000
804.506287	791.000000
804.541992	776.000000
804.577637	801.000000
804.613281	781.000000
804.648926	779.000000
804.684570	777.000000
804.720215	783.000000
804.755920	765.000000
804.791565	772.000000
804.827209	771.000000
804.862854	769.000000
804.898437	776.000000
804.934143	780.000000
804.969788	765.000000
805.005371	771.000000
805.041077	769.000000
805.076721	772.000000
805.112305	767.000000
805.147949	771.000000
805.183655	771.000000
805.219238	766.000000
805.254883	760.000000
805.290466	753.000000
805.326111	751.000000
805.361755	757.000000
805.397400	769.000000
805.432983	779.000000
805.468628	757.000000
805.504211	751.000000
805.539856	757.000000
805.575500	771.000000
805.611084	764.000000
805.646729	745.000000
805.682373	747.000000
805.717957	752.000000
805.753601	746.000000
805.789246	730.000000
805.824768	743.000000
805.860413	767.000000
805.895996	736.000000
805.931641	729.000000
805.967224	747.000000
806.002869	745.000000
806.038452	742.000000
806.074036	741.000000
806.109619	727.000000
806.145264	728.000000
806.180847	726.000000
806.216431	719.000000
806.252014	709.000000
806.287659	713.000000
806.323181	728.000000
806.358826	715.000000
806.394409	706.000000
806.429993	698.000000
806.465576	709.000000
806.501160	694.000000
806.536743	680.000000
806.572327	699.000000
806.607910	687.000000
806.643494	691.000000
806.679077	681.000000
806.714661	683.000000
806.750244	681.000000
806.785828	666.000000
806.821350	683.000000
806.856934	679.000000
806.892517	666.000000
806.928101	660.000000
806.963684	663.000000
806.999268	661.000000
807.034790	650.000000
807.070374	655.000000
807.105896	640.000000
807.141479	631.000000
807.177063	650.000000
807.212585	634.000000
807.248169	641.000000
807.283752	645.000000
807.319275	633.000000
807.354858	640.000000
807.390381	622.000000
807.425903	632.000000
807.461487	619.000000
807.497070	618.000000
807.532593	617.000000
807.568115	619.000000
807.603699	615.000000
807.639221	609.000000
807.674744	601.000000
807.710266	611.000000
807.745850	609.000000
807.781372	608.000000
807.816895	595.000000
807.852417	609.000000
807.888000	598.000000
807.923523	595.000000
807.959045	608.000000
807.994629	589.000000
808.030090	587.000000
808.065613	596.000000
808.101135	601.000000
808.136658	608.000000
808.172241	593.000000
808.207764	592.000000
808.243225	585.000000
808.278809	592.000000
808.314270	599.000000
808.349792	586.000000
808.385315	579.000000
808.420837	587.000000
808.456360	589.000000
808.491882	587.000000
808.527344	590.000000
808.562866	601.000000
808.598389	579.000000
808.633850	577.000000
808.669434	574.000000
808.704895	579.000000
808.740417	590.000000
808.775940	580.000000
808.811462	573.000000
808.846924	575.000000
808.882385	571.000000
808.917847	570.000000
808.953369	569.000000
808.988892	559.000000
809.024353	567.000000
809.059875	564.000000
809.095398	562.000000
809.130798	555.000000
809.166321	555.000000
809.201843	546.000000
809.237305	557.000000
809.272766	563.000000
809.308228	545.000000
809.343750	541.000000
809.379211	544.000000
809.414734	548.000000
809.450134	549.000000
809.485657	524.000000
809.521118	535.000000
809.556580	537.000000
809.592102	538.000000
809.627502	520.000000
809.663025	527.000000
809.698486	524.000000
809.733887	520.000000
809.769409	522.000000
809.804871	509.000000
809.840271	508.000000
809.875793	515.000000
809.911194	520.000000
809.946655	512.000000
809.982178	499.000000
810.017639	515.000000
810.053040	506.000000
810.088501	499.000000
810.123901	509.000000
810.159424	500.000000
810.194885	495.000000
810.230286	496.000000
810.265747	497.000000
810.301208	491.000000
810.336609	492.000000
810.372070	482.000000
810.407532	485.000000
810.442932	486.000000
810.478394	499.000000
810.513794	491.000000
810.549255	487.000000
810.584717	481.000000
810.620117	473.000000
810.655518	482.000000
810.690979	476.000000
810.726379	477.000000
810.761841	472.000000
810.797302	472.000000
810.832642	472.000000
810.868103	472.000000
810.903564	469.000000
810.938904	465.000000
810.974365	464.000000
811.009827	470.000000
811.045166	463.000000
811.080627	461.000000
811.115967	458.000000
811.151428	467.000000
811.186829	466.000000
811.222229	458.000000
811.257629	446.000000
811.293091	459.000000
811.328430	462.000000
811.363892	455.000000
811.399292	465.000000
811.434631	453.000000
811.470093	457.000000
811.505493	448.000000
811.540833	452.000000
811.576294	453.000000
811.611694	456.000000
811.647034	448.000000
811.682434	452.000000
811.717773	457.000000
811.753235	460.000000
811.788635	447.000000
811.823975	453.000000
811.859375	463.000000
811.894775	439.000000
811.930115	450.000000
811.965515	441.000000
812.000916	450.000000
812.036255	443.000000
812.071655	451.000000
812.106995	430.000000
812.142395	437.000000
812.177795	437.000000
812.213196	444.000000
812.248474	444.000000
812.283875	437.000000
812.319214	428.000000
812.354614	441.000000
812.390015	422.000000
812.425293	433.000000
812.460693	423.000000
812.496094	422.000000
812.531433	414.000000
812.566772	415.000000
812.602173	422.000000
812.637451	422.000000
812.672852	414.000000
812.708191	423.000000
812.743530	417.000000
812.778931	408.000000
812.814270	409.000000
812.849609	420.000000
812.884949	405.000000
812.920227	402.000000
812.955627	416.000000
812.990967	414.000000
813.026306	410.000000
813.061646	397.000000
813.096985	387.000000
813.132324	381.000000
813.167664	384.000000
813.203003	397.000000
813.238281	380.000000
813.273682	385.000000
813.308960	378.000000
813.344299	376.000000
813.379639	386.000000
813.414978	383.000000
813.450256	380.000000
813.485596	391.000000
813.520874	374.000000
813.556213	382.000000
813.591614	376.000000
813.626831	370.000000
813.662170	377.000000
813.697510	384.000000
813.732788	377.000000
813.768127	375.000000
813.803467	374.000000
813.838745	372.000000
813.874084	376.000000
813.909363	375.000000
813.944641	369.000000
813.979980	365.000000
814.015320	369.000000
814.050598	363.000000
814.085876	371.000000
814.121155	354.000000
814.156494	362.000000
814.191772	364.000000
814.227051	361.000000
814.262390	361.000000
814.297668	363.000000
814.332947	361.000000
814.368225	355.000000
814.403564	357.000000
814.438782	354.000000
814.474121	357.000000
814.509338	349.000000
814.544617	360.000000
814.579956	355.000000
814.615173	361.000000
814.650513	359.000000
814.685791	352.000000
814.721008	359.000000
814.756348	354.000000
814.791626	355.000000
814.826843	351.000000
814.862122	349.000000
814.897400	353.000000
814.932678	354.000000
814.967957	352.000000
815.003235	343.000000
815.038452	340.000000
815.073730	337.000000
815.108948	352.000000
815.144226	344.000000
815.179504	347.000000
815.214722	337.000000
815.250000	335.000000
815.285278	337.000000
815.320496	333.000000
815.355774	340.000000
815.391052	344.000000
815.426270	335.000000
815.461487	330.000000
815.496765	325.000000
815.531982	328.000000
815.567261	321.000000
815.602539	337.000000
815.637695	331.000000
815.672974	332.000000
815.708191	322.000000
815.743408	336.000000
815.778687	330.000000
815.813904	340.000000
815.849121	311.000000
815.884399	321.000000
815.919556	311.000000
815.954834	321.000000
815.990051	321.000000
816.025269	325.000000
816.060486	310.000000
816.095703	319.000000
816.130920	322.000000
816.166199	319.000000
816.201416	320.000000
816.236572	326.000000
816.271851	313.000000
816.307007	322.000000
816.342224	304.000000
816.377441	308.000000
816.412659	307.000000
816.447876	317.000000
816.483093	311.000000
816.518250	307.000000
816.553467	311.000000
816.588745	309.000000
816.623901	303.000000
816.659119	293.000000
816.694275	302.000000
816.729492	299.000000
816.764709	341.000000
816.799927	295.000000
816.835083	302.000000
816.870300	292.000000
816.905457	304.000000
816.940674	302.000000
816.975830	294.000000
817.010986	296.000000
817.046204	293.000000
817.081421	285.000000
817.116577	287.000000
817.151733	299.000000
817.186951	297.000000
817.222107	297.000000
817.257324	307.000000
817.292419	294.000000
817.327637	288.000000
817.362854	291.000000
817.398010	287.000000
817.433167	289.000000
817.468323	293.000000
817.503479	287.000000
817.538635	304.000000
817.573853	301.000000
817.608948	290.000000
817.644165	295.000000
817.679321	290.000000
817.714478	287.000000
817.749634	292.000000
817.784790	305.000000
817.819946	289.000000
817.855103	283.000000
817.890198	282.000000
817.925415	279.000000
817.960571	289.000000
817.995667	290.000000
818.030823	290.000000
818.066040	286.000000
818.101135	282.000000
818.136292	286.000000
818.171448	279.000000
818.206543	285.000000
818.241699	289.000000
818.276855	281.000000
818.311951	287.000000
818.347107	276.000000
818.382263	285.000000
818.417358	289.000000
818.452515	286.000000
818.487610	291.000000
818.522766	274.000000
818.557922	290.000000
818.593018	288.000000
818.628113	286.000000
818.663269	272.000000
818.698364	280.000000
818.733521	278.000000
818.768677	277.000000
818.803711	269.000000
818.838867	275.000000
818.874023	275.000000
818.909058	275.000000
818.944214	274.000000
818.979370	281.000000
819.014404	281.000000
819.049561	271.000000
819.084595	266.000000
819.119751	262.000000
819.154846	275.000000
819.189941	265.000000
819.225037	266.000000
819.260193	261.000000
819.295227	263.000000
819.330322	259.000000
819.365479	264.000000
819.400513	289.000000
819.435608	261.000000
819.470764	256.000000
819.505798	260.000000
819.540894	263.000000
819.575989	265.000000
819.611084	265.000000
819.646179	267.000000
819.681213	259.000000
819.716309	258.000000
819.751404	261.000000
819.786438	267.000000
819.821533	244.000000
819.856628	259.000000
819.891663	261.000000
819.926758	269.000000
819.961853	256.000000
819.996887	256.000000
820.031982	256.000000
820.067017	259.000000
820.102112	281.000000
820.137207	255.000000
820.172302	274.000000
820.207275	252.000000
820.242371	251.000000
820.277405	255.000000
820.312500	260.000000
820.347534	255.000000
820.382568	257.000000
820.417664	259.000000
820.452759	251.000000
820.487732	252.000000
820.522827	254.000000
820.557861	248.000000
820.592896	251.000000
820.627930	250.000000
820.662964	247.000000
820.698059	257.000000
820.733093	251.000000
820.768127	250.000000
820.803162	254.000000
820.838196	247.000000
820.873230	251.000000
820.908264	250.000000
820.943298	243.000000
820.978333	254.000000
821.013367	255.000000
821.048401	243.000000
821.083435	256.000000
821.118469	237.000000
821.153503	255.000000
821.188477	244.000000
821.223511	239.000000
821.258484	245.000000
821.293579	246.000000
821.328613	236.000000
821.363647	239.000000
821.398621	235.000000
821.433655	240.000000
821.468628	254.000000
821.503662	246.000000
821.538696	246.000000
821.573669	243.000000
821.608704	245.000000
821.643677	242.000000
821.678650	248.000000
821.713684	251.000000
821.748718	243.000000
821.783691	242.000000
821.818726	237.000000
821.853638	245.000000
821.888672	239.000000
821.923706	234.000000
821.958618	239.000000
821.993652	238.000000
822.028687	241.000000
822.063599	244.000000
822.098633	241.000000
822.133667	235.000000
822.168579	233.000000
822.203613	239.000000
822.238586	232.000000
822.273560	242.000000
822.308533	237.000000
822.343567	235.000000
822.378479	241.000000
822.413452	232.000000
822.448425	228.000000
822.483398	240.000000
822.518372	246.000000
822.553345	226.000000
822.588318	241.000000
822.623291	227.000000
822.658203	231.000000
822.693237	232.000000
822.728210	229.000000
822.763123	228.000000
822.798096	230.000000
822.833069	227.000000
822.867981	232.000000
822.902954	229.000000
822.937927	235.000000
822.972900	237.000000
823.007874	219.000000
823.042725	229.000000
823.077698	237.000000
823.112671	226.000000
823.147583	226.000000
823.182556	228.000000
823.217529	232.000000
823.252441	222.000000
823.287415	241.000000
823.322388	231.000000
823.357239	229.000000
823.392212	234.000000
823.427185	231.000000
823.462097	225.000000
823.497009	228.000000
823.531982	227.000000
823.566895	229.000000
823.601807	219.000000
823.636719	224.000000
823.671631	231.000000
823.706604	226.000000
823.741455	230.000000
823.776428	219.000000
823.811340	227.000000
823.846252	230.000000
823.881165	239.000000
823.916138	224.000000
823.950989	241.000000
823.985901	221.000000
824.020813	226.000000
824.055725	223.000000
824.090637	220.000000
824.125610	221.000000
824.160461	223.000000
824.195374	226.000000
824.230225	230.000000
824.265198	212.000000
824.300110	223.000000
824.334961	225.000000
824.369873	214.000000
824.404785	223.000000
824.439636	228.000000
824.474548	208.000000
824.509460	217.000000
824.544312	226.000000
824.579224	224.000000
824.614075	224.000000
824.648987	222.000000
824.683899	222.000000
824.718811	222.000000
824.753662	230.000000
824.788574	229.000000
824.823364	224.000000
824.858276	217.000000
824.893188	224.000000
824.928040	227.000000
824.962952	218.000000
824.997803	224.000000
825.032654	221.000000
825.067566	222.000000
825.102417	217.000000
825.137268	216.000000
825.172119	218.000000
825.206970	220.000000
825.241882	216.000000
825.276733	213.000000
825.311646	217.000000
825.346436	211.000000
825.381348	211.000000
825.416138	217.000000
825.450989	216.000000
825.485901	204.000000
825.520691	210.000000
825.555542	209.000000
825.590454	218.000000
825.625244	207.000000
825.660095	224.000000
825.695007	223.000000
825.729797	215.000000
825.764648	207.000000
825.799438	216.000000
825.834290	214.000000
825.869202	211.000000
825.903992	216.000000
825.938843	208.000000
825.973694	213.000000
826.008484	225.000000
826.043335	207.000000
826.078186	207.000000
826.112976	215.000000
826.147827	221.000000
826.182678	223.000000
826.217468	207.000000
826.252319	219.000000
826.287109	208.000000
826.321899	220.000000
826.356750	214.000000
826.391541	211.000000
826.426392	222.000000
826.461182	214.000000
826.495972	205.000000
826.530823	199.000000
826.565613	210.000000
826.600403	211.000000
826.635254	215.000000
826.670044	207.000000
826.704834	207.000000
826.739685	208.000000
826.774475	213.000000
826.809265	210.000000
826.844055	206.000000
826.878906	223.000000
826.913635	210.000000
826.948425	215.000000
826.983215	210.000000
827.018005	215.000000
827.052856	203.000000
827.087585	215.000000
827.122375	205.000000
827.157227	211.000000
827.191956	223.000000
827.226746	204.000000
827.261536	209.000000
827.296265	201.000000
827.331116	203.000000
827.365906	208.000000
827.400635	203.000000
827.435425	198.000000
827.470215	212.000000
827.504944	209.000000
827.539734	213.000000
827.574463	207.000000
827.609253	214.000000
827.644043	210.000000
827.678772	211.000000
827.713562	211.000000
827.748352	208.000000
827.783081	199.000000
827.817871	213.000000
827.852600	204.000000
827.887329	204.000000
827.922119	198.000000
827.956848	214.000000
827.991638	224.000000
828.026367	211.000000
828.061157	208.000000
828.095886	208.000000
828.130615	221.000000
828.165344	196.000000
828.200073	209.000000
828.234863	205.000000
828.269592	204.000000
828.304321	214.000000
828.339111	206.000000
828.373779	204.000000
828.408569	209.000000
828.443298	212.000000
828.477966	203.000000
828.512756	207.000000
828.547424	198.000000
828.582214	205.000000
828.616943	196.000000
828.651672	206.000000
828.686340	207.000000
828.721130	198.000000
828.755798	204.000000
828.790527	203.000000
828.825256	202.000000
828.859924	207.000000
828.894714	209.000000
828.929443	213.000000
828.964111	206.000000
828.998840	209.000000
829.033569	196.000000
829.068237	206.000000
829.102966	201.000000
829.137634	204.000000
829.172363	201.000000
829.207092	210.000000
829.241821	194.000000
829.276489	199.000000
829.311157	205.000000
829.345825	200.000000
829.380554	209.000000
829.415283	201.000000
829.449951	198.000000
829.484619	213.000000
829.519348	217.000000
829.554016	203.000000
829.588745	206.000000
829.623413	190.000000
829.658081	217.000000
829.692749	195.000000
829.727417	210.000000
829.762146	201.000000
829.796814	197.000000
829.831482	201.000000
829.866150	203.000000
829.900879	197.000000
829.935486	206.000000
829.970154	199.000000
830.004883	215.000000
830.039490	201.000000
830.074219	197.000000
830.108887	197.000000
830.143494	202.000000
830.178223	192.000000
830.212891	200.000000
830.247498	200.000000
830.282166	210.000000
830.316772	210.000000
830.351501	204.000000
830.386169	200.000000
830.420776	196.000000
830.455444	203.000000
830.490112	199.000000
830.524719	193.000000
830.559387	208.000000
830.594055	202.000000
830.628662	204.000000
830.663330	204.000000
830.697998	210.000000
830.732605	200.000000
830.767273	206.000000
830.801941	200.000000
830.836487	212.000000
830.871155	207.000000
830.905762	207.000000
830.940430	197.000000
830.975098	199.000000
831.009644	201.000000
831.044312	212.000000
831.078979	202.000000
831.113525	189.000000
831.148193	201.000000
831.182861	198.000000
831.217407	205.000000
831.252075	220.000000
831.286621	199.000000
831.321289	195.000000
831.355896	199.000000
831.390564	207.000000
831.425110	202.000000
831.459778	202.000000
831.494324	217.000000
831.528931	204.000000
831.563599	202.000000
831.598145	192.000000
831.632751	200.000000
831.667419	198.000000
831.701965	205.000000
831.736572	206.000000
831.771179	194.000000
831.805786	197.000000
831.840393	207.000000
831.874939	191.000000
831.909546	210.000000
831.944153	187.000000
831.978760	202.000000
832.013306	196.000000
832.047913	207.000000
832.082458	209.000000
832.117065	199.000000
832.151672	211.000000
832.186218	203.000000
832.220825	206.000000
832.255432	192.000000
832.289978	203.000000
832.324585	206.000000
832.359192	205.000000
832.393677	201.000000
832.428284	207.000000
832.462830	197.000000
832.497437	202.000000
832.531982	206.000000
832.566589	197.000000
832.601135	204.000000
832.635681	198.000000
832.670227	201.000000
832.704773	215.000000
832.739380	204.000000
832.773926	205.000000
832.808472	195.000000
832.843079	200.000000
832.877563	203.000000
832.912170	200.000000
832.946716	193.000000
832.981201	208.000000
833.015808	206.000000
833.050293	203.000000
833.084839	192.000000
833.119446	199.000000
833.153992	200.000000
833.188477	199.000000
833.223022	198.000000
833.257568	205.000000
833.292114	205.000000
833.326660	215.000000
833.361145	200.000000
833.395691	189.000000
833.430237	202.000000
833.464783	207.000000
833.499329	195.000000
833.533875	198.000000
833.568359	207.000000
833.602905	209.000000
833.637390	210.000000
833.671875	199.000000
833.706421	199.000000
833.740906	197.000000
833.775452	191.000000
833.809998	201.000000
833.844482	213.000000
833.879028	201.000000
833.913513	199.000000
833.947998	202.000000
833.982544	198.000000
834.017090	196.000000
834.051514	189.000000
834.086060	202.000000
834.120544	198.000000
834.155029	202.000000
834.189575	199.000000
834.223999	202.000000
834.258545	203.000000
834.293030	200.000000
834.327515	197.000000
834.362000	196.000000
834.396545	204.000000
834.430969	196.000000
834.465454	208.000000
834.500000	191.000000
834.534424	204.000000
834.568970	189.000000
834.603455	192.000000
834.637878	189.000000
834.672363	203.000000
834.706909	203.000000
834.741333	200.000000
834.775818	195.000000
834.810242	201.000000
834.844727	198.000000
834.879211	200.000000
834.913635	201.000000
834.948181	201.000000
834.982666	202.000000
835.017090	197.000000
835.051575	201.000000
835.086060	200.000000
835.120483	205.000000
835.154907	203.000000
835.189331	200.000000
835.223816	204.000000
835.258301	196.000000
835.292786	195.000000
835.327209	210.000000
835.361694	197.000000
835.396057	199.000000
835.430542	202.000000
835.465027	198.000000
835.499390	194.000000
835.533875	220.000000
835.568359	192.000000
835.602722	197.000000
835.637207	202.000000
835.671692	196.000000
835.706055	215.000000
835.740540	204.000000
835.774902	204.000000
835.809387	203.000000
835.843811	193.000000
835.878235	211.000000
835.912659	188.000000
835.947083	198.000000
835.981506	201.000000
836.015930	192.000000
836.050354	201.000000
836.084778	208.000000
836.119202	207.000000
836.153625	213.000000
836.187988	193.000000
836.222473	202.000000
836.256897	203.000000
836.291260	201.000000
836.325684	199.000000
836.360046	203.000000
836.394470	196.000000
836.428894	212.000000
836.463318	204.000000
836.497681	205.000000
836.532104	208.000000
836.566467	202.000000
836.600891	199.000000
836.635315	208.000000
836.669678	209.000000
836.704102	201.000000
836.738525	205.000000
836.772888	188.000000
836.807251	198.000000
836.841675	204.000000
836.876038	196.000000
836.910461	196.000000
836.944763	212.000000
836.979187	201.000000
837.013611	207.000000
837.047974	193.000000
837.082336	214.000000
837.116699	201.000000
837.151062	201.000000
837.185486	197.000000
837.219849	198.000000
837.254211	200.000000
837.288574	198.000000
837.322937	194.000000
837.357300	187.000000
837.391663	211.000000
837.426086	204.000000
837.460388	198.000000
837.494751	208.000000
837.529114	194.000000
837.563477	208.000000
837.597839	207.000000
837.632141	199.000000
837.666565	202.000000
837.700928	204.000000
837.735229	209.000000
837.769592	207.000000
837.803955	206.000000
837.838257	201.000000
837.872620	198.000000
837.906982	211.000000
837.941284	202.000000
837.975647	202.000000
838.010010	207.000000
838.044312	199.000000
838.078674	198.000000
838.112976	202.000000
838.147339	207.000000
838.181702	200.000000
838.216003	213.000000
838.250366	199.000000
838.284668	203.000000
838.318970	191.000000
838.353333	201.000000
838.387634	200.000000
838.421936	206.000000
838.456299	198.000000
838.490601	212.000000
838.524902	204.000000
838.559265	203.000000
838.593567	202.000000
838.627869	195.000000
838.662170	199.000000
838.696472	191.000000
838.730774	197.000000
838.765137	204.000000
838.799377	180.000000
838.833740	200.000000
838.868042	204.000000
838.902283	191.000000
838.936646	205.000000
838.970947	199.000000
839.005188	205.000000
839.039551	197.000000
839.073792	204.000000
839.108093	198.000000
839.142395	209.000000
839.176697	192.000000
839.210937	203.000000
839.245300	215.000000
839.279541	191.000000
839.313843	200.000000
839.348145	204.000000
839.382385	205.000000
839.416687	211.000000
839.450989	207.000000
839.485229	202.000000
839.519531	195.000000
839.553833	209.000000
839.588013	201.000000
839.622314	205.000000
839.656555	207.000000
839.690857	201.000000
839.725159	197.000000
839.759460	197.000000
839.793640	197.000000
839.827942	203.000000
839.862183	197.000000
839.896423	202.000000
839.930725	206.000000
839.964966	210.000000
839.999207	208.000000
840.033508	212.000000
840.067688	197.000000
840.101990	208.000000
840.136230	197.000000
840.170471	210.000000
840.204712	193.000000
840.238953	201.000000
840.273193	200.000000
840.307434	201.000000
840.341736	193.000000
840.375916	195.000000
840.410217	198.000000
840.444397	207.000000
840.478638	204.000000
840.512878	207.000000
840.547119	201.000000
840.581360	204.000000
840.615601	211.000000
840.649780	214.000000
840.684021	205.000000
840.718262	207.000000
840.752441	208.000000
840.786682	201.000000
840.820862	202.000000
840.855103	209.000000
840.889343	203.000000
840.923584	205.000000
840.957764	205.000000
840.992004	203.000000
841.026184	215.000000
841.060425	202.000000
841.094666	201.000000
841.128845	205.000000
841.163025	204.000000
841.197266	201.000000
841.231445	203.000000
841.265686	203.000000
841.299866	197.000000
841.334045	205.000000
841.368286	200.000000
841.402405	207.000000
841.436646	207.000000
841.470825	194.000000
841.505005	200.000000
841.539185	195.000000
841.573425	198.000000
841.607544	205.000000
841.641785	198.000000
841.675964	193.000000
841.710144	202.000000
841.744324	196.000000
841.778503	196.000000
841.812683	195.000000
841.846863	209.000000
841.881042	207.000000
841.915222	198.000000
841.949402	215.000000
841.983521	196.000000
842.017700	198.000000
842.051880	202.000000
842.086060	203.000000
842.120239	203.000000
842.154419	197.000000
842.188538	204.000000
842.222717	201.000000
842.256897	209.000000
842.291016	203.000000
842.325195	205.000000
842.359375	212.000000
842.393494	208.000000
842.427673	209.000000
842.461853	205.000000
842.495911	211.000000
842.530090	199.000000
842.564209	197.000000
842.598389	204.000000
842.632568	206.000000
842.666626	207.000000
842.700806	200.000000
842.734985	198.000000
842.769043	205.000000
842.803223	198.000000
842.837402	204.000000
842.871460	195.000000
842.905640	212.000000
842.939697	199.000000
842.973877	207.000000
843.007996	203.000000
843.042175	211.000000
843.076233	195.000000
843.110413	205.000000
843.144470	211.000000
843.178589	202.000000
843.212769	195.000000
843.246826	208.000000
843.280945	199.000000
843.315125	200.000000
843.349182	197.000000
843.383301	209.000000
843.417419	216.000000
843.451538	205.000000
843.485657	202.000000
843.519714	201.000000
843.553833	204.000000
843.587952	197.000000
843.622070	195.000000
843.656128	210.000000
843.690247	198.000000
843.724304	201.000000
843.758423	203.000000
843.792542	197.000000
843.826599	206.000000
843.860718	201.000000
843.894836	195.000000
843.928894	204.000000
843.963013	206.000000
843.997070	194.000000
844.031128	197.000000
844.065247	205.000000
844.099304	208.000000
844.133362	204.000000
844.167480	208.000000
844.201599	202.000000
844.235596	211.000000
844.269714	203.000000
844.303711	208.000000
844.337830	193.000000
844.371948	204.000000
844.405945	196.000000
844.440063	198.000000
844.474121	214.000000
844.508118	199.000000
844.542236	200.000000
844.576294	204.000000
844.610352	195.000000
844.644409	202.000000
844.678406	190.000000
844.712524	208.000000
844.746582	213.000000
844.780640	205.000000
844.814636	198.000000
844.848755	216.000000
844.882751	201.000000
844.916809	205.000000
844.950867	205.000000
844.984863	210.000000
845.018921	198.000000
845.052979	203.000000
845.086975	201.000000
845.121033	194.000000
845.155090	198.000000
845.189087	208.000000
845.223145	197.000000
845.257141	202.000000
845.291199	206.000000
845.325256	212.000000
845.359253	202.000000
845.393250	212.000000
845.427307	198.000000
845.461304	202.000000
845.495361	210.000000
845.529358	210.000000
845.563354	206.000000
845.597412	198.000000
845.631409	209.000000
845.665405	211.000000
845.699463	209.000000
845.733459	197.000000
845.767456	212.000000
845.801453	198.000000
845.835449	210.000000
845.869446	206.000000
845.903503	205.000000
845.937439	191.000000
845.971497	212.000000
846.005493	196.000000
846.039429	208.000000
846.073486	211.000000
846.107483	200.000000
846.141418	198.000000
846.175476	206.000000
846.209473	209.000000
846.243408	197.000000
846.277405	205.000000
846.311401	198.000000
846.345337	202.000000
846.379395	212.000000
846.413330	201.000000
846.447327	209.000000
846.481323	196.000000
846.515259	201.000000
846.549255	202.000000
846.583252	206.000000
846.617187	198.000000
846.651184	206.000000
846.685120	204.000000
846.719055	211.000000
846.753052	205.000000
846.786987	208.000000
846.820984	197.000000
846.854980	206.000000
846.888916	198.000000
846.922852	201.000000
846.956848	215.000000
846.990723	194.000000
847.024719	207.000000
847.058716	200.000000
847.092590	211.000000
847.126587	202.000000
847.160522	197.000000
847.194458	208.000000
847.228455	203.000000
847.262390	188.000000
847.296265	201.000000
847.330261	210.000000
847.364136	200.000000
847.398132	195.000000
847.432068	203.000000
847.466003	195.000000
847.499939	205.000000
847.533875	202.000000
847.567749	200.000000
847.601746	200.000000
847.635681	206.000000
847.669556	191.000000
847.703491	209.000000
847.737427	217.000000
847.771301	198.000000
847.805237	203.000000
847.839233	201.000000
847.873108	200.000000
847.907043	202.000000
847.940918	209.000000
847.974854	204.000000
848.008789	211.000000
848.042664	205.000000
848.076538	208.000000
848.110474	204.000000
848.144348	207.000000
848.178284	195.000000
848.212219	206.000000
848.246094	196.000000
848.279968	207.000000
848.313904	210.000000
848.347778	204.000000
848.381653	197.000000
848.415588	200.000000
848.449463	197.000000
848.483337	205.000000
848.517212	206.000000
848.551086	205.000000
848.585022	196.000000
848.618835	211.000000
848.652771	193.000000
848.686646	197.000000
848.720520	207.000000
848.754395	203.000000
848.788330	204.000000
848.822144	208.000000
848.856018	198.000000
848.889954	215.000000
848.923767	203.000000
848.957642	198.000000
848.991577	201.000000
849.025391	201.000000
849.059265	201.000000
849.093079	199.000000
849.126953	201.000000
849.160828	210.000000
849.194641	203.000000
849.228577	202.000000
849.262451	202.000000
849.296265	204.000000
849.330139	201.000000
849.364014	205.000000
849.397827	203.000000
849.431702	203.000000
849.465515	209.000000
849.499329	195.000000
849.533203	199.000000
849.567078	190.000000
849.600891	205.000000
849.634766	201.000000
849.668518	211.000000
849.702393	199.000000
849.736267	196.000000
849.770020	215.000000
849.803894	208.000000
849.837769	200.000000
849.871521	202.000000
849.905396	206.000000
849.939270	202.000000
849.973022	202.000000
850.006897	207.000000
850.040710	206.000000
850.074524	204.000000
850.108337	197.000000
850.142151	205.000000
850.175964	210.000000
850.209778	199.000000
850.243530	189.000000
850.277405	210.000000
850.311218	201.000000
850.344971	201.000000
850.378845	210.000000
850.412659	201.000000
850.446411	206.000000
850.480225	205.000000
850.514038	208.000000
850.547791	208.000000
850.581665	204.000000
850.615417	197.000000
850.649231	205.000000
850.683044	203.000000
850.716858	202.000000
850.750610	205.000000
850.784424	209.000000
850.818176	198.000000
850.851929	200.000000
850.885742	201.000000
850.919495	200.000000
850.953308	210.000000
850.987122	215.000000
851.020874	195.000000
851.054626	193.000000
851.088440	208.000000
851.122192	209.000000
851.156006	201.000000
851.189697	205.000000
851.223511	196.000000
851.257263	208.000000
851.291077	202.000000
851.324829	202.000000
851.358582	199.000000
851.392334	201.000000
851.426086	201.000000
851.459900	212.000000
851.493591	201.000000
851.527344	203.000000
851.561157	200.000000
851.594849	208.000000
851.628662	203.000000
851.662415	212.000000
851.696106	204.000000
851.729858	205.000000
851.763611	194.000000
851.797363	205.000000
851.831116	193.000000
851.864868	205.000000
851.898560	207.000000
851.932312	195.000000
851.966064	202.000000
851.999817	206.000000
852.033569	203.000000
852.067261	211.000000
852.101013	201.000000
852.134766	205.000000
852.168457	193.000000
852.202209	209.000000
852.235901	198.000000
852.269592	203.000000
852.303345	216.000000
852.337036	204.000000
852.370789	204.000000
852.404541	206.000000
852.438171	200.000000
852.471924	204.000000
852.505676	195.000000
852.539307	202.000000
852.573059	196.000000
852.606812	202.000000
852.640442	200.000000
852.674194	208.000000
852.707886	214.000000
852.741577	211.000000
852.775269	202.000000
852.809021	200.000000
852.842651	201.000000
852.876404	209.000000
852.910034	199.000000
852.943787	203.000000
852.977478	209.000000
853.011108	197.000000
853.044861	198.000000
853.078552	210.000000
853.112183	205.000000
853.145874	204.000000
853.179626	196.000000
853.213257	207.000000
853.246948	197.000000
853.280640	211.000000
853.314270	200.000000
853.347961	208.000000
853.381653	207.000000
853.415283	209.000000
853.448975	200.000000
853.482605	204.000000
853.516296	202.000000
853.549988	196.000000
853.583618	206.000000
853.617310	208.000000
853.651001	203.000000
853.684631	199.000000
853.718323	201.000000
853.751953	210.000000
853.785583	196.000000
853.819275	209.000000
853.852966	202.000000
853.886536	193.000000
853.920227	197.000000
853.953918	206.000000
853.987488	196.000000
854.021179	206.000000
854.054749	205.000000
854.088440	207.000000
854.122131	195.000000
854.155701	211.000000
854.189331	197.000000
854.223022	208.000000
854.256592	202.000000
854.290283	203.000000
854.323914	202.000000
854.357483	204.000000
854.391174	203.000000
854.424744	212.000000
854.458374	199.000000
854.492065	211.000000
854.525696	206.000000
854.559265	207.000000
854.592896	215.000000
854.626465	204.000000
854.660095	199.000000
854.693787	208.000000
854.727356	204.000000
854.760986	210.000000
854.794617	208.000000
854.828186	202.000000
854.861816	208.000000
854.895447	205.000000
854.929016	203.000000
854.962585	211.000000
854.996155	213.000000
855.029785	205.000000
855.063416	205.000000
855.097046	205.000000
855.130615	201.000000
855.164185	206.000000
855.197754	211.000000
855.231384	208.000000
855.264954	203.000000
855.298523	199.000000
855.332153	207.000000
855.365723	208.000000
855.399292	200.000000
855.432922	200.000000
855.466492	203.000000
855.500061	199.000000
855.533630	198.000000
855.567200	206.000000
855.600769	207.000000
855.634338	204.000000
855.667969	200.000000
855.701477	198.000000
855.735046	200.000000
855.768616	193.000000
855.802185	204.000000
855.835754	218.000000
855.869324	191.000000
855.902893	203.000000
855.936401	215.000000
855.969971	200.000000
856.003540	198.000000
856.037109	209.000000
856.070618	200.000000
856.104187	200.000000
856.137695	203.000000
856.171265	190.000000
856.204834	203.000000
856.238403	208.000000
856.271912	201.000000
856.305481	203.000000
856.338989	199.000000
856.372559	204.000000
856.406128	204.000000
856.439636	211.000000
856.473145	200.000000
856.506653	210.000000
856.540222	202.000000
856.573792	208.000000
856.607300	207.000000
856.640808	196.000000
856.674377	203.000000
856.707825	232.000000
856.741394	203.000000
856.774902	199.000000
856.808472	190.000000
856.841980	208.000000
856.875488	206.000000
856.908936	198.000000
856.942505	200.000000
856.976013	198.000000
857.009521	194.000000
857.043030	206.000000
857.076477	195.000000
857.110046	206.000000
857.143555	203.000000
857.177063	211.000000
857.210571	201.000000
857.244080	197.000000
857.277527	203.000000
857.311035	202.000000
857.344543	207.000000
857.378052	198.000000
857.411499	204.000000
857.445068	219.000000
857.478516	200.000000
857.512024	195.000000
857.545532	203.000000
857.578979	202.000000
857.612427	200.000000
857.645874	196.000000
857.679382	203.000000
857.712891	209.000000
857.746399	205.000000
857.779846	206.000000
857.813354	209.000000
857.846741	204.000000
857.880249	193.000000
857.913757	202.000000
857.947266	208.000000
857.980652	203.000000
858.014160	202.000000
858.047546	200.000000
858.081055	201.000000
858.114563	208.000000
858.147949	197.000000
858.181458	202.000000
858.214844	203.000000
858.248352	190.000000
858.281799	209.000000
858.315308	216.000000
858.348694	207.000000
858.382141	208.000000
858.415588	204.000000
858.449036	205.000000
858.482483	206.000000
858.515930	199.000000
858.549377	203.000000
858.582825	207.000000
858.616211	208.000000
858.649658	202.000000
858.683105	197.000000
858.716553	200.000000
858.750000	199.000000
858.783386	193.000000
858.816833	197.000000
858.850281	206.000000
858.883728	206.000000
858.917114	201.000000
858.950562	211.000000
858.983948	209.000000
859.017395	209.000000
859.050781	205.000000
859.084167	195.000000
859.117615	198.000000
859.151062	204.000000
859.184448	199.000000
859.217834	200.000000
859.251282	201.000000
859.284668	197.000000
859.318054	196.000000
859.351440	197.000000
859.384888	207.000000
859.418274	193.000000
859.451721	191.000000
859.485046	206.000000
859.518494	209.000000
859.551819	201.000000
859.585266	206.000000
859.618652	203.000000
859.652039	196.000000
859.685425	194.000000
859.718811	197.000000
859.752197	191.000000
859.785583	212.000000
859.819031	211.000000
859.852356	209.000000
859.885742	195.000000
859.919067	205.000000
859.952454	198.000000
859.985901	205.000000
860.019287	198.000000
860.052612	0.000000
860.085999	0.000000
860.119324	0.000000
860.152710	0.000000
860.186096	0.000000
860.219421	0.000000
860.252808	0.000000
860.286133	0.000000
860.319519	0.000000
860.352905	0.000000
860.386292	0.000000
860.419617	0.000000
860.452942	0.000000
860.486267	0.000000
860.519653	0.000000
860.553040	0.000000
860.586365	0.000000
860.619690	0.000000
860.653076	0.000000
860.686340	0.000000
860.719727	0.000000
860.753113	0.000000
860.786377	0.000000
860.819763	0.000000
860.853027	0.000000
860.886414	0.000000
860.919739	0.000000
860.953125	0.000000
860.986389	0.000000
861.019714	0.000000
861.053040	0.000000
861.086365	0.000000
861.119690	0.000000
861.153076	0.000000
861.186340	0.000000
861.219666	0.000000
861.252930	0.000000
861.286316	0.000000
861.319641	0.000000
861.352905	0.000000
861.386230	0.000000
861.419495	0.000000
861.452820	0.000000
861.486145	0.000000
861.519470	0.000000
861.552734	0.000000
861.586060	0.000000
861.619324	0.000000
861.652649	0.000000
861.685974	0.000000
861.719238	0.000000
861.752563	0.000000
861.785828	0.000000
861.819092	0.000000
861.852417	0.000000
861.885742	0.000000
861.918945	0.000000
861.952271	0.000000
861.985535	0.000000
862.018799	0.000000
862.052124	0.000000
862.085449	0.000000
862.118652	0.000000
862.151978	0.000000
862.185181	0.000000
862.218506	0.000000
862.251770	0.000000
862.285034	0.000000
862.318298	0.000000
862.351562	0.000000
862.384827	0.000000
862.418091	0.000000
862.451355	0.000000
862.484619	0.000000
862.517883	0.000000
862.551086	0.000000
862.584351	0.000000
862.617676	0.000000
862.650940	0.000000
862.684143	0.000000
862.717407	0.000000
862.750610	0.000000
862.783875	0.000000
862.817139	0.000000
862.850342	0.000000
862.883606	0.000000
862.916870	0.000000
862.950073	0.000000
862.983337	0.000000
863.016602	0.000000
863.049805	0.000000
863.083069	0.000000
863.116211	0.000000
863.149475	0.000000
863.182739	0.000000
863.216003	0.000000
863.249146	0.000000
863.282410	0.000000
863.315613	0.000000
863.348816	0.000000
863.382080	0.000000
863.415222	0.000000
863.448486	0.000000
863.481689	0.000000
863.514893	0.000000
863.548157	0.000000
863.581360	0.000000
863.614502	0.000000
863.647766	0.000000
863.680908	0.000000
863.714172	0.000000
863.747375	0.000000
863.780579	0.000000
863.813721	0.000000
863.846985	0.000000
863.880127	0.000000
863.913330	0.000000
863.946533	0.000000
863.979675	0.000000
864.012939	0.000000
