Model Number: SPM-001-M   
Serial Number: 10090201
Firmware Version: 004.17.6
Exposure Time: 500000.000000us
Data Taken on: 19-08-2020 09:48:13.195
Wavelength	Amplitude
733.770752	0.000000
733.808716	0.000000
733.846619	0.000000
733.884583	0.000000
733.922546	0.000000
733.960449	0.000000
733.998413	0.000000
734.036377	0.000000
734.074219	0.000000
734.112183	0.000000
734.150085	0.000000
734.188049	0.000000
734.226013	0.000000
734.263916	0.000000
734.301819	0.000000
734.339783	0.000000
734.377686	0.000000
734.415588	0.000000
734.453552	0.000000
734.491455	0.000000
734.529419	0.000000
734.567322	0.000000
734.605225	0.000000
734.643127	0.000000
734.681091	0.000000
734.718994	0.000000
734.756897	0.000000
734.794800	0.000000
734.832703	0.000000
734.870667	0.000000
734.908508	0.000000
734.946472	0.000000
734.984375	0.000000
735.022278	0.000000
735.060181	0.000000
735.098083	0.000000
735.135986	0.000000
735.173889	0.000000
735.211792	0.000000
735.249695	0.000000
735.287598	0.000000
735.325439	0.000000
735.363403	0.000000
735.401306	0.000000
735.439148	0.000000
735.477051	0.000000
735.515015	0.000000
735.552856	0.000000
735.590759	0.000000
735.628662	0.000000
735.666504	0.000000
735.704407	0.000000
735.742310	0.000000
735.780212	0.000000
735.818115	0.000000
735.856018	0.000000
735.893860	0.000000
735.931763	0.000000
735.969604	0.000000
736.007507	0.000000
736.045410	0.000000
736.083252	0.000000
736.121094	0.000000
736.158997	0.000000
736.196838	0.000000
736.234741	0.000000
736.272644	0.000000
736.310486	0.000000
736.348389	0.000000
736.386230	0.000000
736.424072	0.000000
736.461975	0.000000
736.499878	0.000000
736.537720	0.000000
736.575562	0.000000
736.613403	0.000000
736.651306	0.000000
736.689148	0.000000
736.726990	0.000000
736.764893	0.000000
736.802734	0.000000
736.840576	0.000000
736.878418	0.000000
736.916321	0.000000
736.954102	0.000000
736.992004	0.000000
737.029846	0.000000
737.067688	0.000000
737.105530	0.000000
737.143372	0.000000
737.181213	0.000000
737.219116	0.000000
737.256897	0.000000
737.294739	0.000000
737.332642	0.000000
737.370422	0.000000
737.408325	0.000000
737.446167	0.000000
737.483948	0.000000
737.521790	0.000000
737.559692	0.000000
737.597473	0.000000
737.635315	0.000000
737.673157	0.000000
737.710999	0.000000
737.748840	0.000000
737.786621	0.000000
737.824463	0.000000
737.862305	0.000000
737.900085	0.000000
737.937927	0.000000
737.975769	0.000000
738.013550	0.000000
738.051392	0.000000
738.089233	0.000000
738.127014	0.000000
738.164856	0.000000
738.202698	0.000000
738.240479	0.000000
738.278320	0.000000
738.316162	0.000000
738.353943	0.000000
738.391785	0.000000
738.429565	0.000000
738.467407	0.000000
738.505188	0.000000
738.542969	0.000000
738.580811	0.000000
738.618652	0.000000
738.656372	0.000000
738.694214	0.000000
738.732056	0.000000
738.769836	0.000000
738.807617	0.000000
738.845459	0.000000
738.883240	0.000000
738.921021	0.000000
738.958862	0.000000
738.996582	0.000000
739.034424	0.000000
739.072205	0.000000
739.109985	0.000000
739.147827	0.000000
739.185547	0.000000
739.223389	0.000000
739.261169	0.000000
739.298889	0.000000
739.336731	0.000000
739.374512	0.000000
739.412292	0.000000
739.450073	0.000000
739.487854	0.000000
739.525635	0.000000
739.563416	0.000000
739.601135	0.000000
739.638977	0.000000
739.676758	0.000000
739.714478	0.000000
739.752258	0.000000
739.790100	0.000000
739.827820	0.000000
739.865601	0.000000
739.903381	0.000000
739.941101	0.000000
739.978882	192.000000
740.016724	186.000000
740.054443	193.000000
740.092224	185.000000
740.130005	188.000000
740.167725	182.000000
740.205505	188.000000
740.243225	195.000000
740.281006	189.000000
740.318787	177.000000
740.356506	195.000000
740.394287	192.000000
740.432068	188.000000
740.469727	183.000000
740.507507	191.000000
740.545288	186.000000
740.583008	196.000000
740.620789	191.000000
740.658569	179.000000
740.696228	191.000000
740.734009	194.000000
740.771790	178.000000
740.809509	193.000000
740.847229	185.000000
740.884949	187.000000
740.922729	185.000000
740.960449	188.000000
740.998169	186.000000
741.035950	184.000000
741.073669	190.000000
741.111389	195.000000
741.149170	201.000000
741.186890	201.000000
741.224609	193.000000
741.262329	194.000000
741.300110	200.000000
741.337769	187.000000
741.375549	185.000000
741.413208	191.000000
741.450989	185.000000
741.488708	187.000000
741.526367	187.000000
741.564148	193.000000
741.601868	197.000000
741.639526	185.000000
741.677307	193.000000
741.715027	191.000000
741.752686	187.000000
741.790466	193.000000
741.828186	194.000000
741.865845	180.000000
741.903564	181.000000
741.941345	188.000000
741.979004	187.000000
742.016724	195.000000
742.054382	193.000000
742.092102	189.000000
742.129822	183.000000
742.167480	189.000000
742.205200	191.000000
742.242920	193.000000
742.280640	195.000000
742.318359	183.000000
742.356079	185.000000
742.393738	193.000000
742.431396	189.000000
742.469116	192.000000
742.506775	183.000000
742.544495	190.000000
742.582214	194.000000
742.619873	188.000000
742.657593	198.000000
742.695251	191.000000
742.732971	189.000000
742.770630	191.000000
742.808289	191.000000
742.846008	189.000000
742.883728	187.000000
742.921326	190.000000
742.959045	187.000000
742.996765	191.000000
743.034424	189.000000
743.072083	188.000000
743.109802	189.000000
743.147400	184.000000
743.185120	194.000000
743.222839	188.000000
743.260437	195.000000
743.298157	191.000000
743.335754	180.000000
743.373474	190.000000
743.411133	181.000000
743.448792	191.000000
743.486450	187.000000
743.524170	183.000000
743.561768	183.000000
743.599487	197.000000
743.637146	198.000000
743.674744	189.000000
743.712463	185.000000
743.750122	192.000000
743.787720	189.000000
743.825439	192.000000
743.863037	189.000000
743.900696	188.000000
743.938416	212.000000
743.976013	186.000000
744.013672	195.000000
744.051331	196.000000
744.088928	195.000000
744.126587	194.000000
744.164307	191.000000
744.201904	186.000000
744.239563	187.000000
744.277222	192.000000
744.314819	188.000000
744.352478	197.000000
744.390137	190.000000
744.427734	190.000000
744.465393	183.000000
744.502991	187.000000
744.540649	193.000000
744.578308	194.000000
744.615906	184.000000
744.653564	182.000000
744.691223	191.000000
744.728821	187.000000
744.766418	194.000000
744.804077	190.000000
744.841675	188.000000
744.879333	182.000000
744.916992	187.000000
744.954529	189.000000
744.992187	197.000000
745.029785	188.000000
745.067444	190.000000
745.105042	192.000000
745.142639	191.000000
745.180298	199.000000
745.217896	190.000000
745.255493	185.000000
745.293152	196.000000
745.330750	193.000000
745.368347	198.000000
745.405945	188.000000
745.443604	189.000000
745.481140	190.000000
745.518799	190.000000
745.556396	192.000000
745.593994	189.000000
745.631592	185.000000
745.669189	185.000000
745.706787	186.000000
745.744385	187.000000
745.781982	189.000000
745.819580	186.000000
745.857178	184.000000
745.894775	192.000000
745.932373	183.000000
745.969971	193.000000
746.007568	180.000000
746.045166	199.000000
746.082764	195.000000
746.120300	192.000000
746.157898	190.000000
746.195557	192.000000
746.233093	183.000000
746.270691	193.000000
746.308228	188.000000
746.345825	195.000000
746.383423	190.000000
746.420959	187.000000
746.458557	187.000000
746.496155	187.000000
746.533691	191.000000
746.571289	188.000000
746.608887	185.000000
746.646423	190.000000
746.684021	195.000000
746.721619	186.000000
746.759155	192.000000
746.796753	182.000000
746.834351	182.000000
746.871826	186.000000
746.909424	197.000000
746.946960	190.000000
746.984558	190.000000
747.022156	188.000000
747.059631	198.000000
747.097229	191.000000
747.134827	189.000000
747.172363	193.000000
747.209900	192.000000
747.247498	181.000000
747.285034	195.000000
747.322571	196.000000
747.360168	190.000000
747.397644	181.000000
747.435242	198.000000
747.472778	195.000000
747.510315	184.000000
747.547913	184.000000
747.585388	194.000000
747.622925	185.000000
747.660522	181.000000
747.697998	184.000000
747.735596	186.000000
747.773132	185.000000
747.810669	193.000000
747.848206	194.000000
747.885742	188.000000
747.923279	185.000000
747.960815	193.000000
747.998352	189.000000
748.035889	195.000000
748.073425	195.000000
748.110901	188.000000
748.148437	180.000000
748.185974	190.000000
748.223511	201.000000
748.261047	192.000000
748.298584	193.000000
748.336060	189.000000
748.373596	190.000000
748.411133	209.000000
748.448608	190.000000
748.486145	194.000000
748.523682	198.000000
748.561218	199.000000
748.598755	192.000000
748.636292	191.000000
748.673706	186.000000
748.711243	195.000000
748.748718	193.000000
748.786255	188.000000
748.823792	188.000000
748.861267	186.000000
748.898804	196.000000
748.936340	193.000000
748.973816	188.000000
749.011292	194.000000
749.048828	194.000000
749.086304	187.000000
749.123840	201.000000
749.161316	186.000000
749.198792	199.000000
749.236328	193.000000
749.273743	190.000000
749.311279	185.000000
749.348816	192.000000
749.386230	192.000000
749.423767	177.000000
749.461304	186.000000
749.498718	187.000000
749.536255	192.000000
749.573730	201.000000
749.611206	193.000000
749.648682	187.000000
749.686218	185.000000
749.723633	193.000000
749.761169	181.000000
749.798645	185.000000
749.836060	192.000000
749.873596	184.000000
749.911011	189.000000
749.948547	198.000000
749.986023	188.000000
750.023437	187.000000
750.060913	182.000000
750.098450	182.000000
750.135864	188.000000
750.173340	193.000000
750.210815	193.000000
750.248291	190.000000
750.285767	191.000000
750.323242	192.000000
750.360657	195.000000
750.398132	187.000000
750.435608	193.000000
750.473022	189.000000
750.510498	190.000000
750.547974	187.000000
750.585449	186.000000
750.622925	183.000000
750.660339	201.000000
750.697815	193.000000
750.735291	191.000000
750.772644	193.000000
750.810120	195.000000
750.847595	194.000000
750.885010	186.000000
750.922485	197.000000
750.959961	191.000000
750.997375	197.000000
751.034851	193.000000
751.072266	195.000000
751.109680	181.000000
751.147156	192.000000
751.184570	193.000000
751.221985	192.000000
751.259460	183.000000
751.296875	189.000000
751.334290	191.000000
751.371765	191.000000
751.409180	195.000000
751.446594	190.000000
751.484070	193.000000
751.521423	189.000000
751.558899	192.000000
751.596375	198.000000
751.633728	197.000000
751.671204	201.000000
751.708618	187.000000
751.746033	189.000000
751.783447	183.000000
751.820801	191.000000
751.858276	192.000000
751.895691	186.000000
751.933105	187.000000
751.970520	187.000000
752.007935	186.000000
752.045349	196.000000
752.082764	190.000000
752.120178	187.000000
752.157532	187.000000
752.195007	187.000000
752.232422	194.000000
752.269775	197.000000
752.307190	193.000000
752.344543	185.000000
752.382019	186.000000
752.419434	186.000000
752.456787	190.000000
752.494202	197.000000
752.531616	190.000000
752.568970	192.000000
752.606384	189.000000
752.643799	196.000000
752.681152	199.000000
752.718567	197.000000
752.755981	184.000000
752.793335	192.000000
752.830750	182.000000
752.868164	201.000000
752.905518	182.000000
752.942932	197.000000
752.980225	182.000000
753.017639	194.000000
753.055054	192.000000
753.092407	194.000000
753.129822	193.000000
753.167175	198.000000
753.204529	189.000000
753.241943	184.000000
753.279358	184.000000
753.316650	193.000000
753.354065	187.000000
753.391479	197.000000
753.428772	198.000000
753.466187	193.000000
753.503479	185.000000
753.540894	190.000000
753.578308	181.000000
753.615601	187.000000
753.653015	195.000000
753.690369	186.000000
753.727722	191.000000
753.765076	187.000000
753.802490	179.000000
753.839783	185.000000
753.877136	186.000000
753.914551	205.000000
753.951843	187.000000
753.989258	194.000000
754.026611	192.000000
754.063904	194.000000
754.101257	186.000000
754.138611	183.000000
754.175964	194.000000
754.213318	198.000000
754.250610	183.000000
754.288025	185.000000
754.325378	183.000000
754.362671	194.000000
754.400024	191.000000
754.437378	198.000000
754.474670	196.000000
754.512085	182.000000
754.549438	190.000000
754.586731	187.000000
754.624084	188.000000
754.661438	185.000000
754.698730	197.000000
754.736084	184.000000
754.773376	190.000000
754.810730	189.000000
754.848083	190.000000
754.885315	194.000000
754.922668	184.000000
754.960022	181.000000
754.997314	195.000000
755.034668	185.000000
755.072021	188.000000
755.109253	186.000000
755.146606	199.000000
755.183960	187.000000
755.221252	199.000000
755.258545	194.000000
755.295898	195.000000
755.333191	197.000000
755.370544	192.000000
755.407776	188.000000
755.445129	198.000000
755.482422	194.000000
755.519714	191.000000
755.557068	187.000000
755.594360	185.000000
755.631653	197.000000
755.668945	203.000000
755.706299	196.000000
755.743530	209.000000
755.780884	203.000000
755.818176	199.000000
755.855408	200.000000
755.892761	192.000000
755.930054	194.000000
755.967346	193.000000
756.004639	199.000000
756.041870	195.000000
756.079224	203.000000
756.116516	193.000000
756.153748	201.000000
756.191040	204.000000
756.228394	199.000000
756.265625	195.000000
756.302917	201.000000
756.340210	189.000000
756.377441	206.000000
756.414795	206.000000
756.452087	196.000000
756.489319	190.000000
756.526611	199.000000
756.563843	200.000000
756.601135	207.000000
756.638428	205.000000
756.675659	197.000000
756.712952	201.000000
756.750244	201.000000
756.787476	198.000000
756.824768	209.000000
756.862061	196.000000
756.899292	246.000000
756.936584	199.000000
756.973816	218.000000
757.011047	211.000000
757.048340	198.000000
757.085632	198.000000
757.122864	212.000000
757.160156	199.000000
757.197327	206.000000
757.234619	205.000000
757.271912	197.000000
757.309082	207.000000
757.346375	197.000000
757.383667	201.000000
757.420837	206.000000
757.458130	206.000000
757.495422	198.000000
757.532593	208.000000
757.569885	199.000000
757.607117	200.000000
757.644348	205.000000
757.681580	218.000000
757.718811	193.000000
757.756042	206.000000
757.793335	200.000000
757.830505	209.000000
757.867798	204.000000
757.905029	203.000000
757.942200	210.000000
757.979492	203.000000
758.016724	205.000000
758.053894	203.000000
758.091187	223.000000
758.128418	210.000000
758.165588	202.000000
758.202820	219.000000
758.240112	207.000000
758.277283	220.000000
758.314514	205.000000
758.351685	206.000000
758.388916	213.000000
758.426147	215.000000
758.463379	216.000000
758.500610	209.000000
758.537842	208.000000
758.575012	217.000000
758.612244	203.000000
758.649475	223.000000
758.686646	201.000000
758.723877	215.000000
758.761108	216.000000
758.798279	213.000000
758.835510	211.000000
758.872742	217.000000
758.909851	212.000000
758.947083	214.000000
758.984253	212.000000
759.021484	218.000000
759.058716	213.000000
759.095886	215.000000
759.133057	209.000000
759.170288	218.000000
759.207458	215.000000
759.244690	224.000000
759.281860	215.000000
759.319031	211.000000
759.356262	213.000000
759.393433	210.000000
759.430603	213.000000
759.467773	215.000000
759.505005	218.000000
759.542175	221.000000
759.579346	215.000000
759.616516	217.000000
759.653687	220.000000
759.690918	209.000000
759.728027	217.000000
759.765259	223.000000
759.802429	224.000000
759.839539	221.000000
759.876770	226.000000
759.913940	223.000000
759.951111	219.000000
759.988281	217.000000
760.025452	216.000000
760.062561	213.000000
760.099792	227.000000
760.136963	216.000000
760.174072	222.000000
760.211243	211.000000
760.248413	216.000000
760.285583	213.000000
760.322754	229.000000
760.359863	221.000000
760.397034	225.000000
760.434204	224.000000
760.471375	225.000000
760.508545	218.000000
760.545715	222.000000
760.582825	219.000000
760.619995	225.000000
760.657166	214.000000
760.694275	228.000000
760.731445	223.000000
760.768555	224.000000
760.805664	231.000000
760.842834	223.000000
760.879944	222.000000
760.917114	230.000000
760.954285	223.000000
760.991394	220.000000
761.028564	230.000000
761.065674	233.000000
761.102783	230.000000
761.139954	237.000000
761.177124	231.000000
761.214172	241.000000
761.251343	231.000000
761.288452	232.000000
761.325562	235.000000
761.362732	226.000000
761.399841	232.000000
761.436951	238.000000
761.474121	228.000000
761.511169	230.000000
761.548340	244.000000
761.585449	243.000000
761.622559	242.000000
761.659668	237.000000
761.696838	244.000000
761.733887	231.000000
761.771057	237.000000
761.808167	235.000000
761.845276	247.000000
761.882385	250.000000
761.919434	243.000000
761.956604	256.000000
761.993713	244.000000
762.030762	247.000000
762.067871	250.000000
762.105042	244.000000
762.142090	254.000000
762.179199	242.000000
762.216309	249.000000
762.253418	258.000000
762.290527	260.000000
762.327637	251.000000
762.364685	240.000000
762.401794	247.000000
762.438904	254.000000
762.475952	249.000000
762.513062	243.000000
762.550110	245.000000
762.587219	260.000000
762.624329	256.000000
762.661377	253.000000
762.698486	258.000000
762.735596	254.000000
762.772644	251.000000
762.809753	250.000000
762.846863	251.000000
762.883911	258.000000
762.921021	261.000000
762.958069	254.000000
762.995117	260.000000
763.032227	269.000000
763.069336	254.000000
763.106323	256.000000
763.143433	254.000000
763.180481	263.000000
763.217590	269.000000
763.254639	262.000000
763.291687	260.000000
763.328735	266.000000
763.365845	263.000000
763.402893	263.000000
763.439941	266.000000
763.477051	261.000000
763.514038	272.000000
763.551147	259.000000
763.588196	268.000000
763.625244	266.000000
763.662292	274.000000
763.699402	275.000000
763.736389	273.000000
763.773499	279.000000
763.810486	274.000000
763.847534	265.000000
763.884644	278.000000
763.921631	268.000000
763.958679	287.000000
763.995728	276.000000
764.032776	289.000000
764.069824	272.000000
764.106873	281.000000
764.143860	276.000000
764.180969	271.000000
764.218018	278.000000
764.255005	275.000000
764.292053	276.000000
764.329102	295.000000
764.366089	296.000000
764.403137	288.000000
764.440125	287.000000
764.477173	296.000000
764.514221	289.000000
764.551208	286.000000
764.588257	279.000000
764.625305	284.000000
764.662292	290.000000
764.699341	303.000000
764.736389	291.000000
764.773376	312.000000
764.810425	299.000000
764.847473	310.000000
764.884399	300.000000
764.921448	319.000000
764.958435	310.000000
764.995483	296.000000
765.032532	309.000000
765.069458	295.000000
765.106506	298.000000
765.143555	292.000000
765.180481	301.000000
765.217529	306.000000
765.254578	298.000000
765.291504	308.000000
765.328552	306.000000
765.365540	307.000000
765.402527	314.000000
765.439575	308.000000
765.476501	307.000000
765.513550	304.000000
765.550537	299.000000
765.587463	317.000000
765.624512	304.000000
765.661499	298.000000
765.698486	313.000000
765.735474	304.000000
765.772461	308.000000
765.809448	317.000000
765.846436	317.000000
765.883423	318.000000
765.920410	317.000000
765.957397	308.000000
765.994385	325.000000
766.031311	328.000000
766.068359	324.000000
766.105286	313.000000
766.142273	326.000000
766.179260	321.000000
766.216187	320.000000
766.253174	316.000000
766.290161	324.000000
766.327148	328.000000
766.364136	335.000000
766.401123	345.000000
766.438049	325.000000
766.475037	337.000000
766.512024	337.000000
766.548950	351.000000
766.585937	345.000000
766.622864	338.000000
766.659790	350.000000
766.696777	341.000000
766.733704	348.000000
766.770691	344.000000
766.807678	358.000000
766.844604	347.000000
766.881531	351.000000
766.918518	367.000000
766.955444	359.000000
766.992432	355.000000
767.029358	358.000000
767.066284	361.000000
767.103271	355.000000
767.140198	395.000000
767.177124	380.000000
767.214050	365.000000
767.251038	372.000000
767.287964	372.000000
767.324890	361.000000
767.361816	372.000000
767.398743	369.000000
767.435730	370.000000
767.472595	369.000000
767.509583	387.000000
767.546509	376.000000
767.583374	383.000000
767.620361	365.000000
767.657288	379.000000
767.694214	381.000000
767.731140	383.000000
767.768066	371.000000
767.804993	387.000000
767.841919	373.000000
767.878845	387.000000
767.915710	392.000000
767.952698	385.000000
767.989563	391.000000
768.026489	395.000000
768.063416	388.000000
768.100281	392.000000
768.137207	405.000000
768.174133	405.000000
768.211060	401.000000
768.247986	397.000000
768.284912	397.000000
768.321777	401.000000
768.358704	397.000000
768.395630	403.000000
768.432495	407.000000
768.469421	408.000000
768.506348	414.000000
768.543152	417.000000
768.580078	411.000000
768.616943	415.000000
768.653870	422.000000
768.690796	419.000000
768.727661	422.000000
768.764587	419.000000
768.801453	418.000000
768.838318	427.000000
768.875244	432.000000
768.912109	433.000000
768.948975	423.000000
768.985901	432.000000
769.022766	428.000000
769.059631	436.000000
769.096558	437.000000
769.133362	434.000000
769.170288	433.000000
769.207214	434.000000
769.244019	445.000000
769.280945	432.000000
769.317810	454.000000
769.354675	438.000000
769.391541	453.000000
769.428406	450.000000
769.465271	465.000000
769.502136	450.000000
769.539062	465.000000
769.575867	458.000000
769.612732	463.000000
769.649597	461.000000
769.686462	461.000000
769.723328	459.000000
769.760193	466.000000
769.797058	463.000000
769.833923	478.000000
769.870728	470.000000
769.907593	476.000000
769.944519	468.000000
769.981323	480.000000
770.018188	483.000000
770.055054	481.000000
770.091858	480.000000
770.128723	491.000000
770.165588	488.000000
770.202393	476.000000
770.239258	481.000000
770.276062	481.000000
770.312927	494.000000
770.349792	497.000000
770.386597	489.000000
770.423462	506.000000
770.460327	508.000000
770.497131	495.000000
770.533997	491.000000
770.570862	502.000000
770.607605	495.000000
770.644470	498.000000
770.681335	502.000000
770.718140	508.000000
770.754944	503.000000
770.791809	496.000000
770.828613	502.000000
770.865479	508.000000
770.902222	515.000000
770.939087	508.000000
770.975952	497.000000
771.012695	502.000000
771.049561	521.000000
771.086365	503.000000
771.123169	515.000000
771.159973	513.000000
771.196838	514.000000
771.233582	522.000000
771.270447	523.000000
771.307251	523.000000
771.344055	527.000000
771.380859	517.000000
771.417664	528.000000
771.454468	534.000000
771.491272	531.000000
771.528076	522.000000
771.564880	534.000000
771.601685	537.000000
771.638428	533.000000
771.675293	541.000000
771.712097	535.000000
771.748840	550.000000
771.785645	556.000000
771.822449	545.000000
771.859253	549.000000
771.896057	544.000000
771.932861	564.000000
771.969604	559.000000
772.006409	552.000000
772.043213	564.000000
772.079956	565.000000
772.116760	560.000000
772.153503	572.000000
772.190308	580.000000
772.227112	570.000000
772.263855	568.000000
772.300659	575.000000
772.337463	590.000000
772.374207	581.000000
772.411011	581.000000
772.447754	579.000000
772.484497	580.000000
772.521301	586.000000
772.558105	590.000000
772.594849	600.000000
772.631592	595.000000
772.668396	595.000000
772.705139	602.000000
772.741882	601.000000
772.778625	611.000000
772.815430	617.000000
772.852173	621.000000
772.888916	627.000000
772.925720	626.000000
772.962463	633.000000
772.999207	630.000000
773.035950	646.000000
773.072754	651.000000
773.109436	645.000000
773.146240	638.000000
773.182922	624.000000
773.219727	635.000000
773.256470	645.000000
773.293152	625.000000
773.329956	654.000000
773.366699	651.000000
773.403381	640.000000
773.440186	653.000000
773.476929	649.000000
773.513611	657.000000
773.550354	663.000000
773.587158	661.000000
773.623840	658.000000
773.660583	664.000000
773.697327	665.000000
773.734009	664.000000
773.770813	677.000000
773.807495	668.000000
773.844238	672.000000
773.880981	678.000000
773.917664	671.000000
773.954407	696.000000
773.991150	699.000000
774.027832	702.000000
774.064575	694.000000
774.101318	695.000000
774.138000	696.000000
774.174744	702.000000
774.211487	722.000000
774.248108	698.000000
774.284851	701.000000
774.321594	719.000000
774.358276	711.000000
774.395020	739.000000
774.431702	755.000000
774.468384	727.000000
774.505127	733.000000
774.541809	725.000000
774.578491	738.000000
774.615234	729.000000
774.651917	735.000000
774.688599	747.000000
774.725342	761.000000
774.762024	737.000000
774.798706	741.000000
774.835449	744.000000
774.872070	759.000000
774.908813	760.000000
774.945496	771.000000
774.982178	757.000000
775.018860	768.000000
775.055542	751.000000
775.092224	757.000000
775.128967	778.000000
775.165588	794.000000
775.202271	772.000000
775.239014	783.000000
775.275635	766.000000
775.312317	778.000000
775.349060	796.000000
775.385681	804.000000
775.422363	797.000000
775.459045	796.000000
775.495667	787.000000
775.532410	796.000000
775.569092	811.000000
775.605713	823.000000
775.642395	812.000000
775.679016	804.000000
775.715698	791.000000
775.752380	802.000000
775.789001	795.000000
775.825684	809.000000
775.862366	813.000000
775.898987	827.000000
775.935669	807.000000
775.972351	800.000000
776.008972	827.000000
776.045654	826.000000
776.082336	833.000000
776.118958	827.000000
776.155640	834.000000
776.192322	822.000000
776.228882	819.000000
776.265564	837.000000
776.302185	844.000000
776.338867	843.000000
776.375488	842.000000
776.412109	834.000000
776.448792	846.000000
776.485413	858.000000
776.522034	861.000000
776.558716	844.000000
776.595337	851.000000
776.631958	851.000000
776.668579	839.000000
776.705261	841.000000
776.741882	840.000000
776.778503	848.000000
776.815186	846.000000
776.851746	854.000000
776.888367	846.000000
776.924988	857.000000
776.961609	843.000000
776.998291	865.000000
777.034851	861.000000
777.071472	865.000000
777.108154	852.000000
777.144714	867.000000
777.181335	871.000000
777.218018	865.000000
777.254578	888.000000
777.291199	901.000000
777.327759	902.000000
777.364380	903.000000
777.401062	920.000000
777.437622	944.000000
777.474243	929.000000
777.510864	939.000000
777.547424	928.000000
777.584045	923.000000
777.620667	921.000000
777.657227	935.000000
777.693848	952.000000
777.730469	950.000000
777.767029	949.000000
777.803650	946.000000
777.840271	929.000000
777.876831	938.000000
777.913452	958.000000
777.950012	934.000000
777.986633	929.000000
778.023193	928.000000
778.059753	937.000000
778.096375	937.000000
778.132996	947.000000
778.169556	943.000000
778.206116	952.000000
778.242737	949.000000
778.279297	964.000000
778.315857	950.000000
778.352478	963.000000
778.389038	972.000000
778.425598	974.000000
778.462219	986.000000
778.498718	986.000000
778.535339	997.000000
778.571838	997.000000
778.608459	987.000000
778.645020	971.000000
778.681580	1001.000000
778.718140	983.000000
778.754761	977.000000
778.791260	990.000000
778.827881	1011.000000
778.864441	988.000000
778.900940	1013.000000
778.937561	1002.000000
778.974121	1015.000000
779.010620	994.000000
779.047241	1011.000000
779.083801	1009.000000
779.120300	1032.000000
779.156860	1057.000000
779.193359	1044.000000
779.229980	1058.000000
779.266541	1066.000000
779.303040	1075.000000
779.339600	1073.000000
779.376160	1061.000000
779.412659	1063.000000
779.449219	1067.000000
779.485779	1066.000000
779.522278	1070.000000
779.558838	1070.000000
779.595398	1080.000000
779.631897	1073.000000
779.668457	1069.000000
779.705017	1080.000000
779.741516	1076.000000
779.778076	1054.000000
779.814575	1065.000000
779.851074	1066.000000
779.887634	1087.000000
779.924133	1082.000000
779.960693	1081.000000
779.997253	1088.000000
780.033691	1090.000000
780.070251	1087.000000
780.106812	1115.000000
780.143250	1122.000000
780.179810	1119.000000
780.216370	1123.000000
780.252808	1108.000000
780.289368	1105.000000
780.325867	1133.000000
780.362366	1148.000000
780.398865	1164.000000
780.435364	1146.000000
780.471863	1152.000000
780.508423	1130.000000
780.544861	1148.000000
780.581421	1151.000000
780.617920	1144.000000
780.654419	1153.000000
780.690918	1155.000000
780.727417	1146.000000
780.763916	1158.000000
780.800415	1174.000000
780.836914	1165.000000
780.873352	1196.000000
780.909912	1176.000000
780.946411	1159.000000
780.982849	1171.000000
781.019348	1190.000000
781.055786	1167.000000
781.092346	1185.000000
781.128845	1205.000000
781.165283	1182.000000
781.201782	1195.000000
781.238281	1189.000000
781.274719	1192.000000
781.311218	1220.000000
781.347717	1241.000000
781.384155	1211.000000
781.420654	1237.000000
781.457092	1236.000000
781.493591	1232.000000
781.530090	1225.000000
781.566528	1245.000000
781.602966	1237.000000
781.639465	1225.000000
781.675903	1219.000000
781.712402	1211.000000
781.748901	1228.000000
781.785278	1204.000000
781.821777	1219.000000
781.858276	1201.000000
781.894714	1221.000000
781.931152	1207.000000
781.967651	1212.000000
782.004089	1188.000000
782.040527	1214.000000
782.076965	1199.000000
782.113403	1190.000000
782.149902	1181.000000
782.186340	1200.000000
782.222778	1206.000000
782.259277	1199.000000
782.295654	1203.000000
782.332092	1209.000000
782.368591	1205.000000
782.404968	1223.000000
782.441467	1235.000000
782.477905	1237.000000
782.514282	1222.000000
782.550781	1239.000000
782.587219	1217.000000
782.623596	1229.000000
782.660095	1222.000000
782.696472	1214.000000
782.732910	1178.000000
782.769348	1147.000000
782.805786	1077.000000
782.842224	997.000000
782.878662	897.000000
782.915039	775.000000
782.951477	651.000000
782.987915	536.000000
783.024292	446.000000
783.060730	388.000000
783.097168	355.000000
783.133545	331.000000
783.169983	325.000000
783.206421	301.000000
783.242798	286.000000
783.279236	271.000000
783.315613	262.000000
783.352051	259.000000
783.388489	261.000000
783.424866	263.000000
783.461304	286.000000
783.497681	307.000000
783.534058	333.000000
783.570496	373.000000
783.606934	429.000000
783.643250	516.000000
783.679687	624.000000
783.716125	722.000000
783.752441	818.000000
783.788879	929.000000
783.825317	1018.000000
783.861633	1061.000000
783.898071	1115.000000
783.934448	1174.000000
783.970825	1207.000000
784.007263	1251.000000
784.043579	1294.000000
784.080017	1324.000000
784.116394	1311.000000
784.152710	1315.000000
784.189148	1325.000000
784.225525	1315.000000
784.261902	1332.000000
784.298279	1339.000000
784.334656	1306.000000
784.371033	1283.000000
784.407410	1289.000000
784.443787	1286.000000
784.480164	1309.000000
784.516541	1306.000000
784.552856	1322.000000
784.589233	1298.000000
784.625610	1305.000000
784.661987	1349.000000
784.698364	1365.000000
784.734741	1370.000000
784.771057	1370.000000
784.807434	1391.000000
784.843811	1377.000000
784.880127	1363.000000
784.916504	1402.000000
784.952881	1433.000000
784.989197	1441.000000
785.025574	1453.000000
785.061951	1449.000000
785.098267	1469.000000
785.134644	1468.000000
785.170959	1491.000000
785.207275	1514.000000
785.243652	1532.000000
785.279968	1494.000000
785.316345	1455.000000
785.352722	1430.000000
785.388977	1443.000000
785.425354	1414.000000
785.461731	1421.000000
785.498047	1407.000000
785.534363	1358.000000
785.570679	1319.000000
785.606995	1322.000000
785.643372	1334.000000
785.679687	1361.000000
785.716003	1355.000000
785.752380	1328.000000
785.788635	1304.000000
785.825012	1321.000000
785.861328	1329.000000
785.897644	1359.000000
785.933960	1398.000000
785.970337	1416.000000
786.006592	1444.000000
786.042908	1447.000000
786.079285	1474.000000
786.115540	1528.000000
786.151855	1558.000000
786.188171	1582.000000
786.224487	1602.000000
786.260803	1587.000000
786.297119	1585.000000
786.333435	1606.000000
786.369751	1612.000000
786.406006	1609.000000
786.442322	1590.000000
786.478638	1551.000000
786.514954	1534.000000
786.551270	1472.000000
786.587585	1471.000000
786.623840	1446.000000
786.660156	1417.000000
786.696472	1411.000000
786.732727	1374.000000
786.769043	1369.000000
786.805298	1343.000000
786.841614	1355.000000
786.877930	1391.000000
786.914124	1387.000000
786.950439	1419.000000
786.986755	1426.000000
787.023010	1430.000000
787.059326	1453.000000
787.095642	1471.000000
787.131836	1525.000000
787.168152	1531.000000
787.204468	1553.000000
787.240723	1553.000000
787.276978	1538.000000
787.313293	1591.000000
787.349548	1624.000000
787.385803	1622.000000
787.422058	1619.000000
787.458313	1619.000000
787.494629	1570.000000
787.530823	1575.000000
787.567139	1564.000000
787.603455	1551.000000
787.639648	1521.000000
787.675903	1523.000000
787.712219	1473.000000
787.748413	1457.000000
787.784729	1455.000000
787.820984	1443.000000
787.857178	1454.000000
787.893494	1453.000000
787.929749	1433.000000
787.965942	1454.000000
788.002258	1454.000000
788.038452	1457.000000
788.074707	1479.000000
788.110962	1479.000000
788.147217	1474.000000
788.183472	1484.000000
788.219727	1479.000000
788.255920	1500.000000
788.292175	1528.000000
788.328430	1548.000000
788.364624	1541.000000
788.400879	1534.000000
788.437134	1545.000000
788.473328	1517.000000
788.509583	1528.000000
788.545837	1537.000000
788.582031	1551.000000
788.618286	1553.000000
788.654480	1556.000000
788.690735	1528.000000
788.726990	1559.000000
788.763184	1555.000000
788.799377	1556.000000
788.835632	1552.000000
788.871826	1575.000000
788.908081	1549.000000
788.944336	1527.000000
788.980469	1537.000000
789.016724	1526.000000
789.052979	1562.000000
789.089111	1561.000000
789.125366	1562.000000
789.161621	1524.000000
789.197754	1518.000000
789.234009	1512.000000
789.270142	1515.000000
789.306396	1527.000000
789.342590	1509.000000
789.378784	1516.000000
789.414978	1485.000000
789.451233	1495.000000
789.487366	1473.000000
789.523621	1504.000000
789.559814	1504.000000
789.595947	1532.000000
789.632202	1523.000000
789.668335	1506.000000
789.704529	1501.000000
789.740784	1531.000000
789.776917	1536.000000
789.813110	1555.000000
789.849304	1580.000000
789.885498	1548.000000
789.921692	1541.000000
789.957886	1553.000000
789.994019	1565.000000
790.030212	1595.000000
790.066406	1597.000000
790.102539	1599.000000
790.138733	1583.000000
790.174927	1567.000000
790.211060	1570.000000
790.247253	1574.000000
790.283386	1607.000000
790.319580	1595.000000
790.355774	1568.000000
790.391907	1451.000000
790.428101	1256.000000
790.464294	1077.000000
790.500427	988.000000
790.536621	978.000000
790.572754	1064.000000
790.608887	1171.000000
790.645081	1247.000000
790.681274	1312.000000
790.717346	1386.000000
790.753540	1438.000000
790.789734	1480.000000
790.825867	1478.000000
790.862000	1481.000000
790.898132	1495.000000
790.934265	1490.000000
790.970459	1490.000000
791.006592	1521.000000
791.042725	1542.000000
791.078918	1533.000000
791.114990	1524.000000
791.151184	1496.000000
791.187317	1531.000000
791.223389	1536.000000
791.259583	1539.000000
791.295715	1552.000000
791.331848	1537.000000
791.367981	1533.000000
791.404114	1527.000000
791.440247	1527.000000
791.476379	1565.000000
791.512451	1557.000000
791.548584	1570.000000
791.584778	1543.000000
791.620850	1539.000000
791.656982	1534.000000
791.693115	1533.000000
791.729187	1549.000000
791.765381	1581.000000
791.801514	1587.000000
791.837585	1565.000000
791.873718	1566.000000
791.909851	1570.000000
791.945923	1577.000000
791.982056	1588.000000
792.018188	1590.000000
792.054260	1580.000000
792.090393	1569.000000
792.126465	1550.000000
792.162598	1562.000000
792.198669	1572.000000
792.234741	1577.000000
792.270874	1586.000000
792.307007	1550.000000
792.343079	1538.000000
792.379150	1527.000000
792.415283	1515.000000
792.451355	1541.000000
792.487488	1524.000000
792.523560	1537.000000
792.559631	1540.000000
792.595764	1509.000000
792.631836	1509.000000
792.667908	1528.000000
792.703979	1539.000000
792.740051	1535.000000
792.776184	1529.000000
792.812256	1497.000000
792.848328	1511.000000
792.884399	1510.000000
792.920471	1524.000000
792.956543	1540.000000
792.992615	1543.000000
793.028748	1514.000000
793.064758	1513.000000
793.100830	1522.000000
793.136963	1523.000000
793.172974	1524.000000
793.209045	1529.000000
793.245178	1530.000000
793.281189	1542.000000
793.317261	1532.000000
793.353271	1499.000000
793.389404	1500.000000
793.425476	1536.000000
793.461487	1521.000000
793.497559	1528.000000
793.533630	1504.000000
793.569641	1476.000000
793.605713	1483.000000
793.641785	1473.000000
793.677795	1492.000000
793.713867	1509.000000
793.749878	1508.000000
793.785950	1515.000000
793.822021	1540.000000
793.858032	1476.000000
793.894104	1513.000000
793.930176	1505.000000
793.966187	1518.000000
794.002258	1522.000000
794.038269	1533.000000
794.074280	1499.000000
794.110352	1520.000000
794.146423	1516.000000
794.182373	1520.000000
794.218445	1524.000000
794.254517	1546.000000
794.290466	1503.000000
794.326538	1480.000000
794.362549	1483.000000
794.398560	1488.000000
794.434631	1480.000000
794.470581	1473.000000
794.506653	1447.000000
794.542664	1427.000000
794.578674	1426.000000
794.614685	1425.000000
794.650757	1440.000000
794.686707	1444.000000
794.722778	1437.000000
794.758789	1451.000000
794.794739	1439.000000
794.830811	1456.000000
794.866821	1460.000000
794.902771	1460.000000
794.938843	1485.000000
794.974792	1494.000000
795.010803	1491.000000
795.046814	1482.000000
795.082825	1435.000000
795.118835	1472.000000
795.154846	1444.000000
795.190796	1483.000000
795.226807	1461.000000
795.262817	1470.000000
795.298767	1441.000000
795.334778	1442.000000
795.370850	1423.000000
795.406799	1434.000000
795.442810	1437.000000
795.478821	1431.000000
795.514709	1403.000000
795.550720	1401.000000
795.586670	1390.000000
795.622681	1390.000000
795.658691	1419.000000
795.694641	1449.000000
795.730652	1435.000000
795.766663	1451.000000
795.802551	1444.000000
795.838562	1447.000000
795.874573	1447.000000
795.910522	1455.000000
795.946472	1455.000000
795.982483	1458.000000
796.018433	1429.000000
796.054382	1423.000000
796.090393	1391.000000
796.126282	1403.000000
796.162292	1404.000000
796.198242	1416.000000
796.234192	1393.000000
796.270203	1367.000000
796.306091	1362.000000
796.342041	1393.000000
796.378052	1394.000000
796.413940	1412.000000
796.449951	1399.000000
796.485901	1378.000000
796.521790	1372.000000
796.557800	1390.000000
796.593689	1385.000000
796.629639	1395.000000
796.665649	1401.000000
796.701599	1419.000000
796.737488	1409.000000
796.773437	1406.000000
796.809387	1396.000000
796.845337	1435.000000
796.881287	1425.000000
796.917175	1421.000000
796.953125	1428.000000
796.989075	1412.000000
797.024963	1382.000000
797.060913	1374.000000
797.096863	1403.000000
797.132751	1423.000000
797.168701	1377.000000
797.204590	1369.000000
797.240540	1340.000000
797.276489	1321.000000
797.312439	1329.000000
797.348328	1350.000000
797.384277	1359.000000
797.420166	1363.000000
797.456055	1346.000000
797.492004	1322.000000
797.527893	1321.000000
797.563843	1350.000000
797.599731	1352.000000
797.635620	1372.000000
797.671570	1371.000000
797.707520	1356.000000
797.743347	1329.000000
797.779297	1332.000000
797.815125	1343.000000
797.851074	1368.000000
797.887024	1373.000000
797.922913	1357.000000
797.958801	1337.000000
797.994690	1299.000000
798.030579	1319.000000
798.066467	1323.000000
798.102356	1336.000000
798.138245	1330.000000
798.174133	1313.000000
798.210083	1290.000000
798.245911	1285.000000
798.281799	1301.000000
798.317749	1300.000000
798.353577	1307.000000
798.389465	1320.000000
798.425293	1299.000000
798.461243	1289.000000
798.497131	1273.000000
798.532959	1282.000000
798.568848	1313.000000
798.604736	1312.000000
798.640564	1288.000000
798.676453	1279.000000
798.712402	1259.000000
798.748230	1257.000000
798.784119	1269.000000
798.820007	1293.000000
798.855835	1290.000000
798.891724	1296.000000
798.927551	1258.000000
798.963379	1250.000000
798.999268	1250.000000
799.035095	1253.000000
799.070984	1259.000000
799.106873	1258.000000
799.142700	1278.000000
799.178528	1241.000000
799.214417	1230.000000
799.250244	1257.000000
799.286133	1260.000000
799.321960	1284.000000
799.357788	1265.000000
799.393677	1247.000000
799.429504	1236.000000
799.465332	1221.000000
799.501221	1235.000000
799.537048	1261.000000
799.572876	1251.000000
799.608704	1254.000000
799.644531	1257.000000
799.680359	1242.000000
799.716248	1226.000000
799.752014	1245.000000
799.787903	1251.000000
799.823730	1258.000000
799.859558	1225.000000
799.895386	1227.000000
799.931213	1190.000000
799.967041	1209.000000
800.002869	1204.000000
800.038696	1225.000000
800.074463	1210.000000
800.110352	1194.000000
800.146179	1172.000000
800.181946	1196.000000
800.217773	1169.000000
800.253540	1194.000000
800.289429	1199.000000
800.325256	1191.000000
800.361023	1175.000000
800.396851	1174.000000
800.432678	1185.000000
800.468445	1170.000000
800.504272	1180.000000
800.540100	1172.000000
800.575867	1163.000000
800.611694	1178.000000
800.647461	1159.000000
800.683289	1143.000000
800.719116	1141.000000
800.754883	1161.000000
800.790649	1128.000000
800.826477	1138.000000
800.862244	1141.000000
800.898071	1107.000000
800.933838	1101.000000
800.969604	1102.000000
801.005432	1120.000000
801.041199	1115.000000
801.076965	1119.000000
801.112793	1084.000000
801.148560	1073.000000
801.184326	1077.000000
801.220154	1073.000000
801.255859	1078.000000
801.291687	1073.000000
801.327454	1057.000000
801.363281	1058.000000
801.398987	1046.000000
801.434814	1037.000000
801.470520	1042.000000
801.506287	1041.000000
801.542114	1026.000000
801.577820	1042.000000
801.613647	1019.000000
801.649414	1021.000000
801.685120	1020.000000
801.720886	1040.000000
801.756714	1014.000000
801.792419	1012.000000
801.828186	1009.000000
801.863892	1010.000000
801.899719	1008.000000
801.935486	1008.000000
801.971252	1014.000000
802.006958	1015.000000
802.042725	1018.000000
802.078430	1008.000000
802.114197	986.000000
802.149963	1012.000000
802.185669	984.000000
802.221436	1002.000000
802.257202	1010.000000
802.292908	996.000000
802.328674	1000.000000
802.364441	994.000000
802.400146	984.000000
802.435913	992.000000
802.471558	1002.000000
802.507324	994.000000
802.543091	977.000000
802.578796	981.000000
802.614502	989.000000
802.650269	1000.000000
802.685974	985.000000
802.721741	997.000000
802.757446	1009.000000
802.793152	989.000000
802.828918	997.000000
802.864624	981.000000
802.900330	987.000000
802.936035	993.000000
802.971802	983.000000
803.007446	979.000000
803.043213	953.000000
803.078857	949.000000
803.114624	948.000000
803.150330	954.000000
803.185974	953.000000
803.221741	947.000000
803.257446	955.000000
803.293152	938.000000
803.328857	930.000000
803.364563	930.000000
803.400208	939.000000
803.435974	950.000000
803.471680	936.000000
803.507324	914.000000
803.543030	920.000000
803.578735	916.000000
803.614441	903.000000
803.650146	926.000000
803.685791	904.000000
803.721497	911.000000
803.757202	900.000000
803.792847	899.000000
803.828552	887.000000
803.864258	893.000000
803.899902	884.000000
803.935608	868.000000
803.971313	891.000000
804.006958	876.000000
804.042664	871.000000
804.078308	886.000000
804.113953	869.000000
804.149658	881.000000
804.185364	870.000000
804.221008	868.000000
804.256714	850.000000
804.292297	850.000000
804.328003	847.000000
804.363708	845.000000
804.399292	843.000000
804.434998	848.000000
804.470703	817.000000
804.506287	844.000000
804.541992	827.000000
804.577637	845.000000
804.613281	819.000000
804.648926	818.000000
804.684570	825.000000
804.720215	815.000000
804.755920	821.000000
804.791565	819.000000
804.827209	833.000000
804.862854	830.000000
804.898437	826.000000
804.934143	823.000000
804.969788	804.000000
805.005371	820.000000
805.041077	809.000000
805.076721	823.000000
805.112305	812.000000
805.147949	808.000000
805.183655	806.000000
805.219238	811.000000
805.254883	792.000000
805.290466	799.000000
805.326111	802.000000
805.361755	796.000000
805.397400	800.000000
805.432983	797.000000
805.468628	790.000000
805.504211	798.000000
805.539856	784.000000
805.575500	808.000000
805.611084	797.000000
805.646729	785.000000
805.682373	799.000000
805.717957	794.000000
805.753601	803.000000
805.789246	776.000000
805.824768	791.000000
805.860413	799.000000
805.895996	775.000000
805.931641	777.000000
805.967224	780.000000
806.002869	775.000000
806.038452	773.000000
806.074036	777.000000
806.109619	769.000000
806.145264	770.000000
806.180847	759.000000
806.216431	752.000000
806.252014	744.000000
806.287659	739.000000
806.323181	753.000000
806.358826	752.000000
806.394409	740.000000
806.429993	736.000000
806.465576	746.000000
806.501160	715.000000
806.536743	720.000000
806.572327	731.000000
806.607910	743.000000
806.643494	728.000000
806.679077	716.000000
806.714661	710.000000
806.750244	713.000000
806.785828	710.000000
806.821350	707.000000
806.856934	715.000000
806.892517	708.000000
806.928101	699.000000
806.963684	696.000000
806.999268	691.000000
807.034790	686.000000
807.070374	684.000000
807.105896	678.000000
807.141479	673.000000
807.177063	671.000000
807.212585	660.000000
807.248169	657.000000
807.283752	680.000000
807.319275	669.000000
807.354858	671.000000
807.390381	656.000000
807.425903	661.000000
807.461487	663.000000
807.497070	642.000000
807.532593	654.000000
807.568115	653.000000
807.603699	655.000000
807.639221	643.000000
807.674744	642.000000
807.710266	651.000000
807.745850	638.000000
807.781372	638.000000
807.816895	640.000000
807.852417	634.000000
807.888000	641.000000
807.923523	635.000000
807.959045	629.000000
807.994629	614.000000
808.030090	625.000000
808.065613	626.000000
808.101135	624.000000
808.136658	634.000000
808.172241	625.000000
808.207764	619.000000
808.243225	615.000000
808.278809	614.000000
808.314270	625.000000
808.349792	612.000000
808.385315	597.000000
808.420837	610.000000
808.456360	604.000000
808.491882	611.000000
808.527344	608.000000
808.562866	614.000000
808.598389	608.000000
808.633850	594.000000
808.669434	584.000000
808.704895	607.000000
808.740417	601.000000
808.775940	601.000000
808.811462	590.000000
808.846924	592.000000
808.882385	588.000000
808.917847	581.000000
808.953369	590.000000
808.988892	580.000000
809.024353	585.000000
809.059875	592.000000
809.095398	586.000000
809.130798	575.000000
809.166321	565.000000
809.201843	575.000000
809.237305	573.000000
809.272766	575.000000
809.308228	567.000000
809.343750	559.000000
809.379211	562.000000
809.414734	560.000000
809.450134	567.000000
809.485657	551.000000
809.521118	559.000000
809.556580	544.000000
809.592102	551.000000
809.627502	557.000000
809.663025	539.000000
809.698486	543.000000
809.733887	532.000000
809.769409	539.000000
809.804871	521.000000
809.840271	527.000000
809.875793	529.000000
809.911194	529.000000
809.946655	519.000000
809.982178	521.000000
810.017639	526.000000
810.053040	527.000000
810.088501	515.000000
810.123901	524.000000
810.159424	517.000000
810.194885	507.000000
810.230286	517.000000
810.265747	513.000000
810.301208	507.000000
810.336609	505.000000
810.372070	503.000000
810.407532	496.000000
810.442932	501.000000
810.478394	509.000000
810.513794	494.000000
810.549255	496.000000
810.584717	500.000000
810.620117	485.000000
810.655518	496.000000
810.690979	501.000000
810.726379	492.000000
810.761841	485.000000
810.797302	476.000000
810.832642	478.000000
810.868103	498.000000
810.903564	471.000000
810.938904	481.000000
810.974365	479.000000
811.009827	491.000000
811.045166	474.000000
811.080627	470.000000
811.115967	471.000000
811.151428	477.000000
811.186829	468.000000
811.222229	471.000000
811.257629	460.000000
811.293091	471.000000
811.328430	478.000000
811.363892	463.000000
811.399292	469.000000
811.434631	459.000000
811.470093	467.000000
811.505493	463.000000
811.540833	457.000000
811.576294	470.000000
811.611694	458.000000
811.647034	454.000000
811.682434	462.000000
811.717773	460.000000
811.753235	463.000000
811.788635	463.000000
811.823975	456.000000
811.859375	457.000000
811.894775	446.000000
811.930115	451.000000
811.965515	454.000000
812.000916	458.000000
812.036255	456.000000
812.071655	449.000000
812.106995	442.000000
812.142395	445.000000
812.177795	456.000000
812.213196	445.000000
812.248474	442.000000
812.283875	428.000000
812.319214	436.000000
812.354614	432.000000
812.390015	433.000000
812.425293	431.000000
812.460693	427.000000
812.496094	429.000000
812.531433	424.000000
812.566772	427.000000
812.602173	426.000000
812.637451	430.000000
812.672852	419.000000
812.708191	429.000000
812.743530	415.000000
812.778931	415.000000
812.814270	420.000000
812.849609	412.000000
812.884949	409.000000
812.920227	402.000000
812.955627	421.000000
812.990967	406.000000
813.026306	413.000000
813.061646	398.000000
813.096985	393.000000
813.132324	387.000000
813.167664	399.000000
813.203003	400.000000
813.238281	384.000000
813.273682	379.000000
813.308960	386.000000
813.344299	383.000000
813.379639	393.000000
813.414978	379.000000
813.450256	370.000000
813.485596	383.000000
813.520874	372.000000
813.556213	384.000000
813.591614	379.000000
813.626831	369.000000
813.662170	380.000000
813.697510	383.000000
813.732788	371.000000
813.768127	372.000000
813.803467	371.000000
813.838745	376.000000
813.874084	371.000000
813.909363	374.000000
813.944641	375.000000
813.979980	362.000000
814.015320	367.000000
814.050598	365.000000
814.085876	371.000000
814.121155	363.000000
814.156494	352.000000
814.191772	370.000000
814.227051	354.000000
814.262390	362.000000
814.297668	356.000000
814.332947	358.000000
814.368225	349.000000
814.403564	353.000000
814.438782	346.000000
814.474121	352.000000
814.509338	357.000000
814.544617	365.000000
814.579956	351.000000
814.615173	360.000000
814.650513	354.000000
814.685791	343.000000
814.721008	353.000000
814.756348	349.000000
814.791626	349.000000
814.826843	352.000000
814.862122	339.000000
814.897400	345.000000
814.932678	348.000000
814.967957	344.000000
815.003235	346.000000
815.038452	333.000000
815.073730	334.000000
815.108948	346.000000
815.144226	339.000000
815.179504	347.000000
815.214722	329.000000
815.250000	330.000000
815.285278	343.000000
815.320496	336.000000
815.355774	337.000000
815.391052	333.000000
815.426270	338.000000
815.461487	330.000000
815.496765	332.000000
815.531982	319.000000
815.567261	319.000000
815.602539	329.000000
815.637695	330.000000
815.672974	321.000000
815.708191	323.000000
815.743408	332.000000
815.778687	327.000000
815.813904	332.000000
815.849121	317.000000
815.884399	314.000000
815.919556	310.000000
815.954834	317.000000
815.990051	311.000000
816.025269	323.000000
816.060486	318.000000
816.095703	312.000000
816.130920	313.000000
816.166199	311.000000
816.201416	312.000000
816.236572	314.000000
816.271851	307.000000
816.307007	321.000000
816.342224	301.000000
816.377441	307.000000
816.412659	297.000000
816.447876	309.000000
816.483093	309.000000
816.518250	306.000000
816.553467	299.000000
816.588745	305.000000
816.623901	297.000000
816.659119	291.000000
816.694275	297.000000
816.729492	293.000000
816.764709	326.000000
816.799927	293.000000
816.835083	300.000000
816.870300	294.000000
816.905457	297.000000
816.940674	295.000000
816.975830	288.000000
817.010986	290.000000
817.046204	285.000000
817.081421	287.000000
817.116577	283.000000
817.151733	292.000000
817.186951	292.000000
817.222107	291.000000
817.257324	294.000000
817.292419	292.000000
817.327637	277.000000
817.362854	288.000000
817.398010	283.000000
817.433167	280.000000
817.468323	279.000000
817.503479	288.000000
817.538635	293.000000
817.573853	290.000000
817.608948	284.000000
817.644165	283.000000
817.679321	277.000000
817.714478	277.000000
817.749634	285.000000
817.784790	294.000000
817.819946	279.000000
817.855103	264.000000
817.890198	273.000000
817.925415	271.000000
817.960571	282.000000
817.995667	281.000000
818.030823	277.000000
818.066040	274.000000
818.101135	279.000000
818.136292	277.000000
818.171448	274.000000
818.206543	282.000000
818.241699	275.000000
818.276855	279.000000
818.311951	272.000000
818.347107	269.000000
818.382263	277.000000
818.417358	286.000000
818.452515	272.000000
818.487610	279.000000
818.522766	272.000000
818.557922	286.000000
818.593018	279.000000
818.628113	274.000000
818.663269	265.000000
818.698364	265.000000
818.733521	269.000000
818.768677	269.000000
818.803711	267.000000
818.838867	262.000000
818.874023	272.000000
818.909058	261.000000
818.944214	262.000000
818.979370	262.000000
819.014404	271.000000
819.049561	259.000000
819.084595	267.000000
819.119751	253.000000
819.154846	267.000000
819.189941	256.000000
819.225037	256.000000
819.260193	252.000000
819.295227	254.000000
819.330322	246.000000
819.365479	249.000000
819.400513	280.000000
819.435608	250.000000
819.470764	245.000000
819.505798	249.000000
819.540894	250.000000
819.575989	249.000000
819.611084	252.000000
819.646179	257.000000
819.681213	249.000000
819.716309	251.000000
819.751404	248.000000
819.786438	253.000000
819.821533	244.000000
819.856628	249.000000
819.891663	249.000000
819.926758	257.000000
819.961853	259.000000
819.996887	245.000000
820.031982	252.000000
820.067017	247.000000
820.102112	278.000000
820.137207	243.000000
820.172302	260.000000
820.207275	242.000000
820.242371	239.000000
820.277405	243.000000
820.312500	244.000000
820.347534	243.000000
820.382568	252.000000
820.417664	240.000000
820.452759	241.000000
820.487732	241.000000
820.522827	238.000000
820.557861	235.000000
820.592896	238.000000
820.627930	239.000000
820.662964	240.000000
820.698059	244.000000
820.733093	243.000000
820.768127	239.000000
820.803162	240.000000
820.838196	235.000000
820.873230	243.000000
820.908264	240.000000
820.943298	236.000000
820.978333	239.000000
821.013367	240.000000
821.048401	236.000000
821.083435	247.000000
821.118469	227.000000
821.153503	243.000000
821.188477	237.000000
821.223511	230.000000
821.258484	236.000000
821.293579	239.000000
821.328613	227.000000
821.363647	235.000000
821.398621	224.000000
821.433655	231.000000
821.468628	249.000000
821.503662	235.000000
821.538696	234.000000
821.573669	227.000000
821.608704	233.000000
821.643677	227.000000
821.678650	239.000000
821.713684	237.000000
821.748718	231.000000
821.783691	233.000000
821.818726	231.000000
821.853638	232.000000
821.888672	229.000000
821.923706	230.000000
821.958618	229.000000
821.993652	226.000000
822.028687	233.000000
822.063599	237.000000
822.098633	232.000000
822.133667	220.000000
822.168579	224.000000
822.203613	226.000000
822.238586	222.000000
822.273560	226.000000
822.308533	224.000000
822.343567	223.000000
822.378479	221.000000
822.413452	224.000000
822.448425	217.000000
822.483398	233.000000
822.518372	230.000000
822.553345	217.000000
822.588318	229.000000
822.623291	221.000000
822.658203	216.000000
822.693237	219.000000
822.728210	218.000000
822.763123	218.000000
822.798096	213.000000
822.833069	218.000000
822.867981	216.000000
822.902954	214.000000
822.937927	224.000000
822.972900	221.000000
823.007874	210.000000
823.042725	223.000000
823.077698	227.000000
823.112671	215.000000
823.147583	213.000000
823.182556	214.000000
823.217529	223.000000
823.252441	215.000000
823.287415	226.000000
823.322388	217.000000
823.357239	216.000000
823.392212	223.000000
823.427185	220.000000
823.462097	213.000000
823.497009	219.000000
823.531982	212.000000
823.566895	216.000000
823.601807	213.000000
823.636719	213.000000
823.671631	217.000000
823.706604	214.000000
823.741455	222.000000
823.776428	206.000000
823.811340	221.000000
823.846252	220.000000
823.881165	221.000000
823.916138	211.000000
823.950989	226.000000
823.985901	209.000000
824.020813	217.000000
824.055725	208.000000
824.090637	214.000000
824.125610	211.000000
824.160461	214.000000
824.195374	215.000000
824.230225	216.000000
824.265198	208.000000
824.300110	210.000000
824.334961	215.000000
824.369873	202.000000
824.404785	212.000000
824.439636	215.000000
824.474548	203.000000
824.509460	201.000000
824.544312	213.000000
824.579224	211.000000
824.614075	207.000000
824.648987	209.000000
824.683899	206.000000
824.718811	206.000000
824.753662	213.000000
824.788574	214.000000
824.823364	209.000000
824.858276	207.000000
824.893188	213.000000
824.928040	216.000000
824.962952	208.000000
824.997803	212.000000
825.032654	210.000000
825.067566	208.000000
825.102417	203.000000
825.137268	207.000000
825.172119	207.000000
825.206970	205.000000
825.241882	200.000000
825.276733	202.000000
825.311646	208.000000
825.346436	202.000000
825.381348	200.000000
825.416138	203.000000
825.450989	204.000000
825.485901	200.000000
825.520691	199.000000
825.555542	196.000000
825.590454	204.000000
825.625244	196.000000
825.660095	213.000000
825.695007	204.000000
825.729797	208.000000
825.764648	202.000000
825.799438	203.000000
825.834290	203.000000
825.869202	195.000000
825.903992	201.000000
825.938843	200.000000
825.973694	197.000000
826.008484	214.000000
826.043335	192.000000
826.078186	190.000000
826.112976	208.000000
826.147827	206.000000
826.182678	209.000000
826.217468	197.000000
826.252319	205.000000
826.287109	198.000000
826.321899	207.000000
826.356750	201.000000
826.391541	194.000000
826.426392	205.000000
826.461182	197.000000
826.495972	195.000000
826.530823	185.000000
826.565613	198.000000
826.600403	191.000000
826.635254	201.000000
826.670044	190.000000
826.704834	193.000000
826.739685	197.000000
826.774475	201.000000
826.809265	196.000000
826.844055	197.000000
826.878906	205.000000
826.913635	199.000000
826.948425	201.000000
826.983215	199.000000
827.018005	204.000000
827.052856	197.000000
827.087585	203.000000
827.122375	190.000000
827.157227	192.000000
827.191956	209.000000
827.226746	197.000000
827.261536	197.000000
827.296265	194.000000
827.331116	194.000000
827.365906	201.000000
827.400635	194.000000
827.435425	191.000000
827.470215	202.000000
827.504944	199.000000
827.539734	196.000000
827.574463	196.000000
827.609253	201.000000
827.644043	196.000000
827.678772	199.000000
827.713562	194.000000
827.748352	188.000000
827.783081	190.000000
827.817871	189.000000
827.852600	187.000000
827.887329	193.000000
827.922119	187.000000
827.956848	197.000000
827.991638	206.000000
828.026367	192.000000
828.061157	197.000000
828.095886	192.000000
828.130615	216.000000
828.165344	183.000000
828.200073	191.000000
828.234863	189.000000
828.269592	191.000000
828.304321	193.000000
828.339111	193.000000
828.373779	190.000000
828.408569	197.000000
828.443298	199.000000
828.477966	196.000000
828.512756	193.000000
828.547424	188.000000
828.582214	193.000000
828.616943	189.000000
828.651672	190.000000
828.686340	193.000000
828.721130	187.000000
828.755798	193.000000
828.790527	195.000000
828.825256	193.000000
828.859924	194.000000
828.894714	199.000000
828.929443	199.000000
828.964111	191.000000
828.998840	196.000000
829.033569	194.000000
829.068237	193.000000
829.102966	183.000000
829.137634	192.000000
829.172363	192.000000
829.207092	192.000000
829.241821	184.000000
829.276489	188.000000
829.311157	188.000000
829.345825	189.000000
829.380554	199.000000
829.415283	186.000000
829.449951	182.000000
829.484619	202.000000
829.519348	196.000000
829.554016	190.000000
829.588745	189.000000
829.623413	186.000000
829.658081	195.000000
829.692749	185.000000
829.727417	193.000000
829.762146	190.000000
829.796814	187.000000
829.831482	189.000000
829.866150	190.000000
829.900879	187.000000
829.935486	191.000000
829.970154	186.000000
830.004883	203.000000
830.039490	188.000000
830.074219	184.000000
830.108887	191.000000
830.143494	189.000000
830.178223	182.000000
830.212891	187.000000
830.247498	194.000000
830.282166	196.000000
830.316772	196.000000
830.351501	188.000000
830.386169	188.000000
830.420776	188.000000
830.455444	189.000000
830.490112	186.000000
830.524719	185.000000
830.559387	190.000000
830.594055	191.000000
830.628662	192.000000
830.663330	187.000000
830.697998	197.000000
830.732605	189.000000
830.767273	192.000000
830.801941	187.000000
830.836487	203.000000
830.871155	190.000000
830.905762	189.000000
830.940430	179.000000
830.975098	186.000000
831.009644	184.000000
831.044312	199.000000
831.078979	188.000000
831.113525	178.000000
831.148193	189.000000
831.182861	185.000000
831.217407	188.000000
831.252075	205.000000
831.286621	182.000000
831.321289	185.000000
831.355896	186.000000
831.390564	197.000000
831.425110	186.000000
831.459778	196.000000
831.494324	200.000000
831.528931	192.000000
831.563599	193.000000
831.598145	185.000000
831.632751	180.000000
831.667419	188.000000
831.701965	191.000000
831.736572	192.000000
831.771179	182.000000
831.805786	189.000000
831.840393	190.000000
831.874939	174.000000
831.909546	194.000000
831.944153	178.000000
831.978760	192.000000
832.013306	185.000000
832.047913	195.000000
832.082458	200.000000
832.117065	186.000000
832.151672	197.000000
832.186218	190.000000
832.220825	192.000000
832.255432	181.000000
832.289978	187.000000
832.324585	191.000000
832.359192	191.000000
832.393677	190.000000
832.428284	191.000000
832.462830	187.000000
832.497437	185.000000
832.531982	195.000000
832.566589	185.000000
832.601135	188.000000
832.635681	178.000000
832.670227	186.000000
832.704773	193.000000
832.739380	194.000000
832.773926	186.000000
832.808472	187.000000
832.843079	187.000000
832.877563	193.000000
832.912170	185.000000
832.946716	181.000000
832.981201	193.000000
833.015808	195.000000
833.050293	191.000000
833.084839	182.000000
833.119446	186.000000
833.153992	192.000000
833.188477	181.000000
833.223022	186.000000
833.257568	193.000000
833.292114	195.000000
833.326660	196.000000
833.361145	186.000000
833.395691	177.000000
833.430237	188.000000
833.464783	193.000000
833.499329	183.000000
833.533875	181.000000
833.568359	195.000000
833.602905	186.000000
833.637390	193.000000
833.671875	184.000000
833.706421	185.000000
833.740906	187.000000
833.775452	181.000000
833.809998	184.000000
833.844482	195.000000
833.879028	194.000000
833.913513	189.000000
833.947998	189.000000
833.982544	181.000000
834.017090	184.000000
834.051514	177.000000
834.086060	193.000000
834.120544	185.000000
834.155029	195.000000
834.189575	189.000000
834.223999	192.000000
834.258545	185.000000
834.293030	188.000000
834.327515	183.000000
834.362000	184.000000
834.396545	184.000000
834.430969	186.000000
834.465454	192.000000
834.500000	185.000000
834.534424	189.000000
834.568970	182.000000
834.603455	179.000000
834.637878	184.000000
834.672363	187.000000
834.706909	188.000000
834.741333	185.000000
834.775818	182.000000
834.810242	181.000000
834.844727	185.000000
834.879211	181.000000
834.913635	192.000000
834.948181	185.000000
834.982666	193.000000
835.017090	187.000000
835.051575	188.000000
835.086060	188.000000
835.120483	195.000000
835.154907	193.000000
835.189331	193.000000
835.223816	189.000000
835.258301	181.000000
835.292786	184.000000
835.327209	194.000000
835.361694	184.000000
835.396057	189.000000
835.430542	194.000000
835.465027	188.000000
835.499390	188.000000
835.533875	207.000000
835.568359	185.000000
835.602722	183.000000
835.637207	197.000000
835.671692	181.000000
835.706055	209.000000
835.740540	192.000000
835.774902	189.000000
835.809387	187.000000
835.843811	186.000000
835.878235	191.000000
835.912659	180.000000
835.947083	182.000000
835.981506	184.000000
836.015930	182.000000
836.050354	198.000000
836.084778	194.000000
836.119202	197.000000
836.153625	202.000000
836.187988	186.000000
836.222473	185.000000
836.256897	192.000000
836.291260	187.000000
836.325684	189.000000
836.360046	185.000000
836.394470	188.000000
836.428894	194.000000
836.463318	185.000000
836.497681	187.000000
836.532104	199.000000
836.566467	188.000000
836.600891	189.000000
836.635315	195.000000
836.669678	196.000000
836.704102	189.000000
836.738525	194.000000
836.772888	181.000000
836.807251	187.000000
836.841675	192.000000
836.876038	183.000000
836.910461	184.000000
836.944763	195.000000
836.979187	185.000000
837.013611	195.000000
837.047974	184.000000
837.082336	203.000000
837.116699	192.000000
837.151062	191.000000
837.185486	189.000000
837.219849	189.000000
837.254211	192.000000
837.288574	191.000000
837.322937	179.000000
837.357300	180.000000
837.391663	201.000000
837.426086	190.000000
837.460388	194.000000
837.494751	192.000000
837.529114	189.000000
837.563477	193.000000
837.597839	191.000000
837.632141	187.000000
837.666565	186.000000
837.700928	194.000000
837.735229	188.000000
837.769592	192.000000
837.803955	193.000000
837.838257	183.000000
837.872620	187.000000
837.906982	195.000000
837.941284	187.000000
837.975647	188.000000
838.010010	197.000000
838.044312	183.000000
838.078674	185.000000
838.112976	189.000000
838.147339	193.000000
838.181702	186.000000
838.216003	195.000000
838.250366	187.000000
838.284668	195.000000
838.318970	182.000000
838.353333	188.000000
838.387634	185.000000
838.421936	189.000000
838.456299	185.000000
838.490601	194.000000
838.524902	194.000000
838.559265	195.000000
838.593567	189.000000
838.627869	185.000000
838.662170	190.000000
838.696472	184.000000
838.730774	184.000000
838.765137	195.000000
838.799377	177.000000
838.833740	190.000000
838.868042	194.000000
838.902283	182.000000
838.936646	195.000000
838.970947	189.000000
839.005188	195.000000
839.039551	181.000000
839.073792	195.000000
839.108093	183.000000
839.142395	201.000000
839.176697	183.000000
839.210937	187.000000
839.245300	199.000000
839.279541	181.000000
839.313843	182.000000
839.348145	192.000000
839.382385	190.000000
839.416687	194.000000
839.450989	190.000000
839.485229	185.000000
839.519531	181.000000
839.553833	193.000000
839.588013	186.000000
839.622314	189.000000
839.656555	186.000000
839.690857	188.000000
839.725159	180.000000
839.759460	186.000000
839.793640	181.000000
839.827942	189.000000
839.862183	184.000000
839.896423	191.000000
839.930725	196.000000
839.964966	199.000000
839.999207	190.000000
840.033508	194.000000
840.067688	183.000000
840.101990	196.000000
840.136230	185.000000
840.170471	200.000000
840.204712	183.000000
840.238953	184.000000
840.273193	194.000000
840.307434	186.000000
840.341736	184.000000
840.375916	186.000000
840.410217	180.000000
840.444397	193.000000
840.478638	195.000000
840.512878	191.000000
840.547119	190.000000
840.581360	193.000000
840.615601	194.000000
840.649780	201.000000
840.684021	190.000000
840.718262	196.000000
840.752441	197.000000
840.786682	198.000000
840.820862	190.000000
840.855103	197.000000
840.889343	190.000000
840.923584	190.000000
840.957764	193.000000
840.992004	188.000000
841.026184	200.000000
841.060425	185.000000
841.094666	185.000000
841.128845	192.000000
841.163025	192.000000
841.197266	186.000000
841.231445	189.000000
841.265686	187.000000
841.299866	186.000000
841.334045	194.000000
841.368286	188.000000
841.402405	194.000000
841.436646	192.000000
841.470825	185.000000
841.505005	191.000000
841.539185	183.000000
841.573425	190.000000
841.607544	185.000000
841.641785	188.000000
841.675964	183.000000
841.710144	189.000000
841.744324	181.000000
841.778503	185.000000
841.812683	185.000000
841.846863	197.000000
841.881042	196.000000
841.915222	188.000000
841.949402	201.000000
841.983521	180.000000
842.017700	190.000000
842.051880	192.000000
842.086060	191.000000
842.120239	191.000000
842.154419	187.000000
842.188538	190.000000
842.222717	190.000000
842.256897	198.000000
842.291016	188.000000
842.325195	196.000000
842.359375	200.000000
842.393494	197.000000
842.427673	191.000000
842.461853	193.000000
842.495911	201.000000
842.530090	190.000000
842.564209	188.000000
842.598389	187.000000
842.632568	195.000000
842.666626	192.000000
842.700806	188.000000
842.734985	187.000000
842.769043	194.000000
842.803223	186.000000
842.837402	189.000000
842.871460	179.000000
842.905640	198.000000
842.939697	185.000000
842.973877	190.000000
843.007996	194.000000
843.042175	195.000000
843.076233	188.000000
843.110413	189.000000
843.144470	194.000000
843.178589	192.000000
843.212769	185.000000
843.246826	194.000000
843.280945	183.000000
843.315125	189.000000
843.349182	181.000000
843.383301	199.000000
843.417419	198.000000
843.451538	190.000000
843.485657	184.000000
843.519714	186.000000
843.553833	194.000000
843.587952	188.000000
843.622070	188.000000
843.656128	195.000000
843.690247	185.000000
843.724304	187.000000
843.758423	195.000000
843.792542	189.000000
843.826599	190.000000
843.860718	192.000000
843.894836	181.000000
843.928894	191.000000
843.963013	190.000000
843.997070	186.000000
844.031128	190.000000
844.065247	198.000000
844.099304	193.000000
844.133362	189.000000
844.167480	194.000000
844.201599	195.000000
844.235596	195.000000
844.269714	193.000000
844.303711	194.000000
844.337830	184.000000
844.371948	194.000000
844.405945	189.000000
844.440063	189.000000
844.474121	201.000000
844.508118	187.000000
844.542236	185.000000
844.576294	188.000000
844.610352	181.000000
844.644409	191.000000
844.678406	183.000000
844.712524	193.000000
844.746582	193.000000
844.780640	192.000000
844.814636	186.000000
844.848755	200.000000
844.882751	189.000000
844.916809	193.000000
844.950867	189.000000
844.984863	199.000000
845.018921	180.000000
845.052979	189.000000
845.086975	192.000000
845.121033	182.000000
845.155090	187.000000
845.189087	196.000000
845.223145	183.000000
845.257141	187.000000
845.291199	192.000000
845.325256	200.000000
845.359253	191.000000
845.393250	203.000000
845.427307	189.000000
845.461304	195.000000
845.495361	192.000000
845.529358	200.000000
845.563354	186.000000
845.597412	184.000000
845.631409	197.000000
845.665405	195.000000
845.699463	199.000000
845.733459	186.000000
845.767456	199.000000
845.801453	184.000000
845.835449	196.000000
845.869446	194.000000
845.903503	193.000000
845.937439	186.000000
845.971497	201.000000
846.005493	179.000000
846.039429	190.000000
846.073486	197.000000
846.107483	190.000000
846.141418	188.000000
846.175476	189.000000
846.209473	194.000000
846.243408	188.000000
846.277405	191.000000
846.311401	184.000000
846.345337	189.000000
846.379395	197.000000
846.413330	184.000000
846.447327	194.000000
846.481323	180.000000
846.515259	188.000000
846.549255	187.000000
846.583252	193.000000
846.617187	182.000000
846.651184	188.000000
846.685120	188.000000
846.719055	198.000000
846.753052	191.000000
846.786987	197.000000
846.820984	186.000000
846.854980	195.000000
846.888916	184.000000
846.922852	193.000000
846.956848	196.000000
846.990723	186.000000
847.024719	192.000000
847.058716	183.000000
847.092590	198.000000
847.126587	193.000000
847.160522	188.000000
847.194458	194.000000
847.228455	187.000000
847.262390	183.000000
847.296265	186.000000
847.330261	198.000000
847.364136	185.000000
847.398132	192.000000
847.432068	193.000000
847.466003	186.000000
847.499939	189.000000
847.533875	190.000000
847.567749	187.000000
847.601746	189.000000
847.635681	197.000000
847.669556	181.000000
847.703491	195.000000
847.737427	200.000000
847.771301	185.000000
847.805237	188.000000
847.839233	193.000000
847.873108	185.000000
847.907043	191.000000
847.940918	195.000000
847.974854	188.000000
848.008789	192.000000
848.042664	191.000000
848.076538	195.000000
848.110474	192.000000
848.144348	188.000000
848.178284	183.000000
848.212219	189.000000
848.246094	187.000000
848.279968	187.000000
848.313904	196.000000
848.347778	188.000000
848.381653	188.000000
848.415588	183.000000
848.449463	185.000000
848.483337	188.000000
848.517212	197.000000
848.551086	187.000000
848.585022	185.000000
848.618835	199.000000
848.652771	187.000000
848.686646	183.000000
848.720520	200.000000
848.754395	190.000000
848.788330	195.000000
848.822144	193.000000
848.856018	190.000000
848.889954	196.000000
848.923767	191.000000
848.957642	188.000000
848.991577	191.000000
849.025391	186.000000
849.059265	190.000000
849.093079	185.000000
849.126953	181.000000
849.160828	197.000000
849.194641	189.000000
849.228577	185.000000
849.262451	189.000000
849.296265	186.000000
849.330139	183.000000
849.364014	194.000000
849.397827	189.000000
849.431702	195.000000
849.465515	193.000000
849.499329	179.000000
849.533203	182.000000
849.567078	185.000000
849.600891	190.000000
849.634766	191.000000
849.668518	193.000000
849.702393	190.000000
849.736267	182.000000
849.770020	204.000000
849.803894	193.000000
849.837769	196.000000
849.871521	189.000000
849.905396	196.000000
849.939270	185.000000
849.973022	189.000000
850.006897	189.000000
850.040710	194.000000
850.074524	194.000000
850.108337	189.000000
850.142151	191.000000
850.175964	200.000000
850.209778	185.000000
850.243530	178.000000
850.277405	192.000000
850.311218	186.000000
850.344971	183.000000
850.378845	200.000000
850.412659	183.000000
850.446411	191.000000
850.480225	190.000000
850.514038	198.000000
850.547791	188.000000
850.581665	192.000000
850.615417	183.000000
850.649231	195.000000
850.683044	190.000000
850.716858	189.000000
850.750610	195.000000
850.784424	191.000000
850.818176	183.000000
850.851929	190.000000
850.885742	191.000000
850.919495	189.000000
850.953308	197.000000
850.987122	196.000000
851.020874	188.000000
851.054626	180.000000
851.088440	194.000000
851.122192	192.000000
851.156006	189.000000
851.189697	189.000000
851.223511	183.000000
851.257263	191.000000
851.291077	193.000000
851.324829	183.000000
851.358582	191.000000
851.392334	189.000000
851.426086	190.000000
851.459900	196.000000
851.493591	192.000000
851.527344	187.000000
851.561157	194.000000
851.594849	191.000000
851.628662	190.000000
851.662415	201.000000
851.696106	192.000000
851.729858	191.000000
851.763611	185.000000
851.797363	187.000000
851.831116	186.000000
851.864868	195.000000
851.898560	198.000000
851.932312	186.000000
851.966064	193.000000
851.999817	190.000000
852.033569	187.000000
852.067261	195.000000
852.101013	187.000000
852.134766	185.000000
852.168457	181.000000
852.202209	193.000000
852.235901	185.000000
852.269592	197.000000
852.303345	198.000000
852.337036	192.000000
852.370789	189.000000
852.404541	194.000000
852.438171	183.000000
852.471924	190.000000
852.505676	183.000000
852.539307	191.000000
852.573059	185.000000
852.606812	189.000000
852.640442	190.000000
852.674194	197.000000
852.707886	204.000000
852.741577	198.000000
852.775269	184.000000
852.809021	194.000000
852.842651	190.000000
852.876404	196.000000
852.910034	187.000000
852.943787	195.000000
852.977478	195.000000
853.011108	189.000000
853.044861	184.000000
853.078552	198.000000
853.112183	192.000000
853.145874	190.000000
853.179626	182.000000
853.213257	191.000000
853.246948	184.000000
853.280640	202.000000
853.314270	186.000000
853.347961	195.000000
853.381653	193.000000
853.415283	194.000000
853.448975	185.000000
853.482605	191.000000
853.516296	189.000000
853.549988	180.000000
853.583618	191.000000
853.617310	196.000000
853.651001	188.000000
853.684631	187.000000
853.718323	184.000000
853.751953	195.000000
853.785583	181.000000
853.819275	197.000000
853.852966	187.000000
853.886536	182.000000
853.920227	184.000000
853.953918	194.000000
853.987488	190.000000
854.021179	196.000000
854.054749	195.000000
854.088440	194.000000
854.122131	189.000000
854.155701	192.000000
854.189331	188.000000
854.223022	197.000000
854.256592	193.000000
854.290283	186.000000
854.323914	193.000000
854.357483	190.000000
854.391174	191.000000
854.424744	193.000000
854.458374	193.000000
854.492065	201.000000
854.525696	188.000000
854.559265	194.000000
854.592896	202.000000
854.626465	190.000000
854.660095	190.000000
854.693787	191.000000
854.727356	189.000000
854.760986	194.000000
854.794617	192.000000
854.828186	186.000000
854.861816	200.000000
854.895447	187.000000
854.929016	192.000000
854.962585	191.000000
854.996155	200.000000
855.029785	191.000000
855.063416	192.000000
855.097046	195.000000
855.130615	185.000000
855.164185	194.000000
855.197754	193.000000
855.231384	192.000000
855.264954	189.000000
855.298523	196.000000
855.332153	195.000000
855.365723	195.000000
855.399292	188.000000
855.432922	187.000000
855.466492	192.000000
855.500061	186.000000
855.533630	190.000000
855.567200	193.000000
855.600769	198.000000
855.634338	197.000000
855.667969	192.000000
855.701477	186.000000
855.735046	189.000000
855.768616	179.000000
855.802185	194.000000
855.835754	208.000000
855.869324	183.000000
855.902893	193.000000
855.936401	193.000000
855.969971	192.000000
856.003540	185.000000
856.037109	199.000000
856.070618	188.000000
856.104187	187.000000
856.137695	191.000000
856.171265	180.000000
856.204834	190.000000
856.238403	197.000000
856.271912	182.000000
856.305481	193.000000
856.338989	185.000000
856.372559	191.000000
856.406128	185.000000
856.439636	195.000000
856.473145	184.000000
856.506653	197.000000
856.540222	185.000000
856.573792	198.000000
856.607300	190.000000
856.640808	189.000000
856.674377	192.000000
856.707825	220.000000
856.741394	193.000000
856.774902	186.000000
856.808472	183.000000
856.841980	197.000000
856.875488	197.000000
856.908936	185.000000
856.942505	186.000000
856.976013	187.000000
857.009521	181.000000
857.043030	192.000000
857.076477	188.000000
857.110046	200.000000
857.143555	192.000000
857.177063	195.000000
857.210571	189.000000
857.244080	185.000000
857.277527	193.000000
857.311035	192.000000
857.344543	199.000000
857.378052	188.000000
857.411499	200.000000
857.445068	200.000000
857.478516	189.000000
857.512024	185.000000
857.545532	195.000000
857.578979	190.000000
857.612427	193.000000
857.645874	187.000000
857.679382	193.000000
857.712891	195.000000
857.746399	190.000000
857.779846	196.000000
857.813354	199.000000
857.846741	192.000000
857.880249	190.000000
857.913757	190.000000
857.947266	193.000000
857.980652	192.000000
858.014160	190.000000
858.047546	189.000000
858.081055	191.000000
858.114563	198.000000
858.147949	183.000000
858.181458	189.000000
858.214844	190.000000
858.248352	180.000000
858.281799	196.000000
858.315308	199.000000
858.348694	193.000000
858.382141	199.000000
858.415588	192.000000
858.449036	195.000000
858.482483	191.000000
858.515930	187.000000
858.549377	194.000000
858.582825	195.000000
858.616211	201.000000
858.649658	191.000000
858.683105	183.000000
858.716553	193.000000
858.750000	189.000000
858.783386	185.000000
858.816833	184.000000
858.850281	195.000000
858.883728	193.000000
858.917114	191.000000
858.950562	199.000000
858.983948	194.000000
859.017395	191.000000
859.050781	189.000000
859.084167	185.000000
859.117615	189.000000
859.151062	192.000000
859.184448	187.000000
859.217834	189.000000
859.251282	191.000000
859.284668	185.000000
859.318054	180.000000
859.351440	189.000000
859.384888	197.000000
859.418274	182.000000
859.451721	183.000000
859.485046	189.000000
859.518494	193.000000
859.551819	185.000000
859.585266	193.000000
859.618652	197.000000
859.652039	188.000000
859.685425	181.000000
859.718811	185.000000
859.752197	175.000000
859.785583	195.000000
859.819031	197.000000
859.852356	196.000000
859.885742	186.000000
859.919067	192.000000
859.952454	187.000000
859.985901	195.000000
860.019287	188.000000
860.052612	0.000000
860.085999	0.000000
860.119324	0.000000
860.152710	0.000000
860.186096	0.000000
860.219421	0.000000
860.252808	0.000000
860.286133	0.000000
860.319519	0.000000
860.352905	0.000000
860.386292	0.000000
860.419617	0.000000
860.452942	0.000000
860.486267	0.000000
860.519653	0.000000
860.553040	0.000000
860.586365	0.000000
860.619690	0.000000
860.653076	0.000000
860.686340	0.000000
860.719727	0.000000
860.753113	0.000000
860.786377	0.000000
860.819763	0.000000
860.853027	0.000000
860.886414	0.000000
860.919739	0.000000
860.953125	0.000000
860.986389	0.000000
861.019714	0.000000
861.053040	0.000000
861.086365	0.000000
861.119690	0.000000
861.153076	0.000000
861.186340	0.000000
861.219666	0.000000
861.252930	0.000000
861.286316	0.000000
861.319641	0.000000
861.352905	0.000000
861.386230	0.000000
861.419495	0.000000
861.452820	0.000000
861.486145	0.000000
861.519470	0.000000
861.552734	0.000000
861.586060	0.000000
861.619324	0.000000
861.652649	0.000000
861.685974	0.000000
861.719238	0.000000
861.752563	0.000000
861.785828	0.000000
861.819092	0.000000
861.852417	0.000000
861.885742	0.000000
861.918945	0.000000
861.952271	0.000000
861.985535	0.000000
862.018799	0.000000
862.052124	0.000000
862.085449	0.000000
862.118652	0.000000
862.151978	0.000000
862.185181	0.000000
862.218506	0.000000
862.251770	0.000000
862.285034	0.000000
862.318298	0.000000
862.351562	0.000000
862.384827	0.000000
862.418091	0.000000
862.451355	0.000000
862.484619	0.000000
862.517883	0.000000
862.551086	0.000000
862.584351	0.000000
862.617676	0.000000
862.650940	0.000000
862.684143	0.000000
862.717407	0.000000
862.750610	0.000000
862.783875	0.000000
862.817139	0.000000
862.850342	0.000000
862.883606	0.000000
862.916870	0.000000
862.950073	0.000000
862.983337	0.000000
863.016602	0.000000
863.049805	0.000000
863.083069	0.000000
863.116211	0.000000
863.149475	0.000000
863.182739	0.000000
863.216003	0.000000
863.249146	0.000000
863.282410	0.000000
863.315613	0.000000
863.348816	0.000000
863.382080	0.000000
863.415222	0.000000
863.448486	0.000000
863.481689	0.000000
863.514893	0.000000
863.548157	0.000000
863.581360	0.000000
863.614502	0.000000
863.647766	0.000000
863.680908	0.000000
863.714172	0.000000
863.747375	0.000000
863.780579	0.000000
863.813721	0.000000
863.846985	0.000000
863.880127	0.000000
863.913330	0.000000
863.946533	0.000000
863.979675	0.000000
864.012939	0.000000
