Model Number: SPM-001-M   
Serial Number: 10090201
Firmware Version: 004.17.6
Exposure Time: 500000.000000us
Data Taken on: 17-08-2020 11:40:09.189
Wavelength	Amplitude
733.770752	0.000000
733.808716	0.000000
733.846619	0.000000
733.884583	0.000000
733.922546	0.000000
733.960449	0.000000
733.998413	0.000000
734.036377	0.000000
734.074219	0.000000
734.112183	0.000000
734.150085	0.000000
734.188049	0.000000
734.226013	0.000000
734.263916	0.000000
734.301819	0.000000
734.339783	0.000000
734.377686	0.000000
734.415588	0.000000
734.453552	0.000000
734.491455	0.000000
734.529419	0.000000
734.567322	0.000000
734.605225	0.000000
734.643127	0.000000
734.681091	0.000000
734.718994	0.000000
734.756897	0.000000
734.794800	0.000000
734.832703	0.000000
734.870667	0.000000
734.908508	0.000000
734.946472	0.000000
734.984375	0.000000
735.022278	0.000000
735.060181	0.000000
735.098083	0.000000
735.135986	0.000000
735.173889	0.000000
735.211792	0.000000
735.249695	0.000000
735.287598	0.000000
735.325439	0.000000
735.363403	0.000000
735.401306	0.000000
735.439148	0.000000
735.477051	0.000000
735.515015	0.000000
735.552856	0.000000
735.590759	0.000000
735.628662	0.000000
735.666504	0.000000
735.704407	0.000000
735.742310	0.000000
735.780212	0.000000
735.818115	0.000000
735.856018	0.000000
735.893860	0.000000
735.931763	0.000000
735.969604	0.000000
736.007507	0.000000
736.045410	0.000000
736.083252	0.000000
736.121094	0.000000
736.158997	0.000000
736.196838	0.000000
736.234741	0.000000
736.272644	0.000000
736.310486	0.000000
736.348389	0.000000
736.386230	0.000000
736.424072	0.000000
736.461975	0.000000
736.499878	0.000000
736.537720	0.000000
736.575562	0.000000
736.613403	0.000000
736.651306	0.000000
736.689148	0.000000
736.726990	0.000000
736.764893	0.000000
736.802734	0.000000
736.840576	0.000000
736.878418	0.000000
736.916321	0.000000
736.954102	0.000000
736.992004	0.000000
737.029846	0.000000
737.067688	0.000000
737.105530	0.000000
737.143372	0.000000
737.181213	0.000000
737.219116	0.000000
737.256897	0.000000
737.294739	0.000000
737.332642	0.000000
737.370422	0.000000
737.408325	0.000000
737.446167	0.000000
737.483948	0.000000
737.521790	0.000000
737.559692	0.000000
737.597473	0.000000
737.635315	0.000000
737.673157	0.000000
737.710999	0.000000
737.748840	0.000000
737.786621	0.000000
737.824463	0.000000
737.862305	0.000000
737.900085	0.000000
737.937927	0.000000
737.975769	0.000000
738.013550	0.000000
738.051392	0.000000
738.089233	0.000000
738.127014	0.000000
738.164856	0.000000
738.202698	0.000000
738.240479	0.000000
738.278320	0.000000
738.316162	0.000000
738.353943	0.000000
738.391785	0.000000
738.429565	0.000000
738.467407	0.000000
738.505188	0.000000
738.542969	0.000000
738.580811	0.000000
738.618652	0.000000
738.656372	0.000000
738.694214	0.000000
738.732056	0.000000
738.769836	0.000000
738.807617	0.000000
738.845459	0.000000
738.883240	0.000000
738.921021	0.000000
738.958862	0.000000
738.996582	0.000000
739.034424	0.000000
739.072205	0.000000
739.109985	0.000000
739.147827	0.000000
739.185547	0.000000
739.223389	0.000000
739.261169	0.000000
739.298889	0.000000
739.336731	0.000000
739.374512	0.000000
739.412292	0.000000
739.450073	0.000000
739.487854	0.000000
739.525635	0.000000
739.563416	0.000000
739.601135	0.000000
739.638977	0.000000
739.676758	0.000000
739.714478	0.000000
739.752258	0.000000
739.790100	0.000000
739.827820	0.000000
739.865601	0.000000
739.903381	0.000000
739.941101	0.000000
739.978882	207.000000
740.016724	201.000000
740.054443	208.000000
740.092224	202.000000
740.130005	205.000000
740.167725	198.000000
740.205505	202.000000
740.243225	212.000000
740.281006	207.000000
740.318787	199.000000
740.356506	207.000000
740.394287	206.000000
740.432068	199.000000
740.469727	193.000000
740.507507	206.000000
740.545288	202.000000
740.583008	206.000000
740.620789	197.000000
740.658569	196.000000
740.696228	200.000000
740.734009	208.000000
740.771790	188.000000
740.809509	207.000000
740.847229	197.000000
740.884949	201.000000
740.922729	195.000000
740.960449	199.000000
740.998169	200.000000
741.035950	198.000000
741.073669	203.000000
741.111389	207.000000
741.149170	215.000000
741.186890	215.000000
741.224609	209.000000
741.262329	204.000000
741.300110	213.000000
741.337769	197.000000
741.375549	198.000000
741.413208	203.000000
741.450989	200.000000
741.488708	202.000000
741.526367	198.000000
741.564148	208.000000
741.601868	212.000000
741.639526	198.000000
741.677307	207.000000
741.715027	199.000000
741.752686	200.000000
741.790466	214.000000
741.828186	204.000000
741.865845	194.000000
741.903564	194.000000
741.941345	202.000000
741.979004	198.000000
742.016724	206.000000
742.054382	204.000000
742.092102	204.000000
742.129822	194.000000
742.167480	202.000000
742.205200	199.000000
742.242920	203.000000
742.280640	207.000000
742.318359	194.000000
742.356079	198.000000
742.393738	206.000000
742.431396	203.000000
742.469116	203.000000
742.506775	195.000000
742.544495	204.000000
742.582214	212.000000
742.619873	205.000000
742.657593	211.000000
742.695251	211.000000
742.732971	204.000000
742.770630	204.000000
742.808289	201.000000
742.846008	209.000000
742.883728	205.000000
742.921326	206.000000
742.959045	198.000000
742.996765	203.000000
743.034424	205.000000
743.072083	202.000000
743.109802	200.000000
743.147400	198.000000
743.185120	201.000000
743.222839	197.000000
743.260437	207.000000
743.298157	205.000000
743.335754	188.000000
743.373474	204.000000
743.411133	195.000000
743.448792	204.000000
743.486450	199.000000
743.524170	197.000000
743.561768	200.000000
743.599487	212.000000
743.637146	216.000000
743.674744	197.000000
743.712463	197.000000
743.750122	206.000000
743.787720	204.000000
743.825439	197.000000
743.863037	199.000000
743.900696	202.000000
743.938416	227.000000
743.976013	204.000000
744.013672	209.000000
744.051331	209.000000
744.088928	214.000000
744.126587	210.000000
744.164307	205.000000
744.201904	202.000000
744.239563	204.000000
744.277222	206.000000
744.314819	203.000000
744.352478	214.000000
744.390137	209.000000
744.427734	204.000000
744.465393	202.000000
744.502991	199.000000
744.540649	205.000000
744.578308	202.000000
744.615906	197.000000
744.653564	189.000000
744.691223	205.000000
744.728821	197.000000
744.766418	201.000000
744.804077	201.000000
744.841675	199.000000
744.879333	194.000000
744.916992	198.000000
744.954529	199.000000
744.992187	212.000000
745.029785	198.000000
745.067444	198.000000
745.105042	199.000000
745.142639	202.000000
745.180298	210.000000
745.217896	197.000000
745.255493	198.000000
745.293152	208.000000
745.330750	205.000000
745.368347	212.000000
745.405945	203.000000
745.443604	204.000000
745.481140	208.000000
745.518799	204.000000
745.556396	209.000000
745.593994	208.000000
745.631592	202.000000
745.669189	198.000000
745.706787	203.000000
745.744385	201.000000
745.781982	209.000000
745.819580	201.000000
745.857178	201.000000
745.894775	207.000000
745.932373	203.000000
745.969971	204.000000
746.007568	197.000000
746.045166	213.000000
746.082764	210.000000
746.120300	205.000000
746.157898	208.000000
746.195557	201.000000
746.233093	199.000000
746.270691	205.000000
746.308228	209.000000
746.345825	204.000000
746.383423	208.000000
746.420959	198.000000
746.458557	201.000000
746.496155	199.000000
746.533691	199.000000
746.571289	194.000000
746.608887	200.000000
746.646423	199.000000
746.684021	204.000000
746.721619	197.000000
746.759155	204.000000
746.796753	191.000000
746.834351	195.000000
746.871826	199.000000
746.909424	211.000000
746.946960	201.000000
746.984558	201.000000
747.022156	199.000000
747.059631	208.000000
747.097229	203.000000
747.134827	201.000000
747.172363	210.000000
747.209900	205.000000
747.247498	199.000000
747.285034	210.000000
747.322571	211.000000
747.360168	198.000000
747.397644	193.000000
747.435242	206.000000
747.472778	213.000000
747.510315	199.000000
747.547913	202.000000
747.585388	210.000000
747.622925	201.000000
747.660522	191.000000
747.697998	208.000000
747.735596	200.000000
747.773132	198.000000
747.810669	201.000000
747.848206	210.000000
747.885742	197.000000
747.923279	199.000000
747.960815	201.000000
747.998352	204.000000
748.035889	207.000000
748.073425	208.000000
748.110901	201.000000
748.148437	201.000000
748.185974	205.000000
748.223511	214.000000
748.261047	206.000000
748.298584	205.000000
748.336060	201.000000
748.373596	208.000000
748.411133	214.000000
748.448608	199.000000
748.486145	210.000000
748.523682	207.000000
748.561218	206.000000
748.598755	205.000000
748.636292	203.000000
748.673706	206.000000
748.711243	209.000000
748.748718	203.000000
748.786255	206.000000
748.823792	208.000000
748.861267	193.000000
748.898804	208.000000
748.936340	209.000000
748.973816	201.000000
749.011292	207.000000
749.048828	208.000000
749.086304	205.000000
749.123840	217.000000
749.161316	200.000000
749.198792	209.000000
749.236328	210.000000
749.273743	205.000000
749.311279	201.000000
749.348816	204.000000
749.386230	205.000000
749.423767	190.000000
749.461304	208.000000
749.498718	202.000000
749.536255	207.000000
749.573730	215.000000
749.611206	213.000000
749.648682	197.000000
749.686218	206.000000
749.723633	211.000000
749.761169	201.000000
749.798645	196.000000
749.836060	202.000000
749.873596	196.000000
749.911011	204.000000
749.948547	209.000000
749.986023	199.000000
750.023437	204.000000
750.060913	199.000000
750.098450	192.000000
750.135864	201.000000
750.173340	205.000000
750.210815	205.000000
750.248291	199.000000
750.285767	207.000000
750.323242	213.000000
750.360657	205.000000
750.398132	200.000000
750.435608	206.000000
750.473022	200.000000
750.510498	198.000000
750.547974	196.000000
750.585449	202.000000
750.622925	192.000000
750.660339	208.000000
750.697815	205.000000
750.735291	201.000000
750.772644	210.000000
750.810120	202.000000
750.847595	208.000000
750.885010	196.000000
750.922485	218.000000
750.959961	202.000000
750.997375	210.000000
751.034851	208.000000
751.072266	211.000000
751.109680	196.000000
751.147156	213.000000
751.184570	204.000000
751.221985	204.000000
751.259460	196.000000
751.296875	203.000000
751.334290	201.000000
751.371765	207.000000
751.409180	208.000000
751.446594	206.000000
751.484070	206.000000
751.521423	210.000000
751.558899	203.000000
751.596375	210.000000
751.633728	212.000000
751.671204	218.000000
751.708618	196.000000
751.746033	206.000000
751.783447	195.000000
751.820801	201.000000
751.858276	211.000000
751.895691	204.000000
751.933105	203.000000
751.970520	197.000000
752.007935	198.000000
752.045349	210.000000
752.082764	205.000000
752.120178	203.000000
752.157532	201.000000
752.195007	201.000000
752.232422	207.000000
752.269775	212.000000
752.307190	204.000000
752.344543	198.000000
752.382019	205.000000
752.419434	199.000000
752.456787	204.000000
752.494202	203.000000
752.531616	205.000000
752.568970	205.000000
752.606384	209.000000
752.643799	204.000000
752.681152	212.000000
752.718567	204.000000
752.755981	196.000000
752.793335	198.000000
752.830750	195.000000
752.868164	210.000000
752.905518	198.000000
752.942932	205.000000
752.980225	197.000000
753.017639	204.000000
753.055054	211.000000
753.092407	203.000000
753.129822	208.000000
753.167175	213.000000
753.204529	204.000000
753.241943	199.000000
753.279358	198.000000
753.316650	209.000000
753.354065	207.000000
753.391479	208.000000
753.428772	216.000000
753.466187	206.000000
753.503479	198.000000
753.540894	198.000000
753.578308	199.000000
753.615601	199.000000
753.653015	204.000000
753.690369	201.000000
753.727722	203.000000
753.765076	201.000000
753.802490	199.000000
753.839783	197.000000
753.877136	199.000000
753.914551	217.000000
753.951843	199.000000
753.989258	211.000000
754.026611	201.000000
754.063904	207.000000
754.101257	194.000000
754.138611	195.000000
754.175964	205.000000
754.213318	214.000000
754.250610	192.000000
754.288025	200.000000
754.325378	194.000000
754.362671	205.000000
754.400024	197.000000
754.437378	214.000000
754.474670	211.000000
754.512085	201.000000
754.549438	201.000000
754.586731	201.000000
754.624084	200.000000
754.661438	201.000000
754.698730	203.000000
754.736084	204.000000
754.773376	203.000000
754.810730	205.000000
754.848083	203.000000
754.885315	212.000000
754.922668	193.000000
754.960022	200.000000
754.997314	209.000000
755.034668	206.000000
755.072021	207.000000
755.109253	206.000000
755.146606	209.000000
755.183960	207.000000
755.221252	217.000000
755.258545	211.000000
755.295898	213.000000
755.333191	212.000000
755.370544	209.000000
755.407776	206.000000
755.445129	210.000000
755.482422	203.000000
755.519714	202.000000
755.557068	194.000000
755.594360	197.000000
755.631653	206.000000
755.668945	221.000000
755.706299	209.000000
755.743530	224.000000
755.780884	215.000000
755.818176	212.000000
755.855408	207.000000
755.892761	209.000000
755.930054	203.000000
755.967346	211.000000
756.004639	214.000000
756.041870	210.000000
756.079224	211.000000
756.116516	203.000000
756.153748	208.000000
756.191040	218.000000
756.228394	209.000000
756.265625	201.000000
756.302917	216.000000
756.340210	204.000000
756.377441	210.000000
756.414795	218.000000
756.452087	209.000000
756.489319	199.000000
756.526611	217.000000
756.563843	213.000000
756.601135	222.000000
756.638428	222.000000
756.675659	212.000000
756.712952	212.000000
756.750244	214.000000
756.787476	212.000000
756.824768	216.000000
756.862061	204.000000
756.899292	258.000000
756.936584	217.000000
756.973816	227.000000
757.011047	226.000000
757.048340	215.000000
757.085632	213.000000
757.122864	231.000000
757.160156	209.000000
757.197327	214.000000
757.234619	214.000000
757.271912	212.000000
757.309082	214.000000
757.346375	211.000000
757.383667	219.000000
757.420837	217.000000
757.458130	209.000000
757.495422	211.000000
757.532593	214.000000
757.569885	209.000000
757.607117	208.000000
757.644348	213.000000
757.681580	233.000000
757.718811	199.000000
757.756042	214.000000
757.793335	217.000000
757.830505	215.000000
757.867798	213.000000
757.905029	215.000000
757.942200	218.000000
757.979492	214.000000
758.016724	216.000000
758.053894	214.000000
758.091187	238.000000
758.128418	221.000000
758.165588	215.000000
758.202820	233.000000
758.240112	214.000000
758.277283	229.000000
758.314514	223.000000
758.351685	214.000000
758.388916	231.000000
758.426147	229.000000
758.463379	230.000000
758.500610	221.000000
758.537842	217.000000
758.575012	231.000000
758.612244	210.000000
758.649475	235.000000
758.686646	215.000000
758.723877	229.000000
758.761108	230.000000
758.798279	221.000000
758.835510	224.000000
758.872742	229.000000
758.909851	221.000000
758.947083	227.000000
758.984253	223.000000
759.021484	230.000000
759.058716	224.000000
759.095886	227.000000
759.133057	222.000000
759.170288	225.000000
759.207458	220.000000
759.244690	242.000000
759.281860	233.000000
759.319031	225.000000
759.356262	221.000000
759.393433	225.000000
759.430603	224.000000
759.467773	228.000000
759.505005	231.000000
759.542175	233.000000
759.579346	226.000000
759.616516	225.000000
759.653687	234.000000
759.690918	223.000000
759.728027	226.000000
759.765259	232.000000
759.802429	233.000000
759.839539	228.000000
759.876770	243.000000
759.913940	241.000000
759.951111	233.000000
759.988281	230.000000
760.025452	233.000000
760.062561	226.000000
760.099792	238.000000
760.136963	228.000000
760.174072	227.000000
760.211243	218.000000
760.248413	228.000000
760.285583	224.000000
760.322754	240.000000
760.359863	236.000000
760.397034	236.000000
760.434204	229.000000
760.471375	229.000000
760.508545	225.000000
760.545715	233.000000
760.582825	222.000000
760.619995	235.000000
760.657166	223.000000
760.694275	237.000000
760.731445	230.000000
760.768555	235.000000
760.805664	238.000000
760.842834	235.000000
760.879944	243.000000
760.917114	237.000000
760.954285	233.000000
760.991394	234.000000
761.028564	247.000000
761.065674	242.000000
761.102783	233.000000
761.139954	244.000000
761.177124	245.000000
761.214172	251.000000
761.251343	241.000000
761.288452	240.000000
761.325562	245.000000
761.362732	237.000000
761.399841	241.000000
761.436951	245.000000
761.474121	240.000000
761.511169	250.000000
761.548340	249.000000
761.585449	245.000000
761.622559	250.000000
761.659668	245.000000
761.696838	254.000000
761.733887	248.000000
761.771057	247.000000
761.808167	250.000000
761.845276	254.000000
761.882385	262.000000
761.919434	252.000000
761.956604	269.000000
761.993713	246.000000
762.030762	262.000000
762.067871	253.000000
762.105042	249.000000
762.142090	261.000000
762.179199	253.000000
762.216309	259.000000
762.253418	267.000000
762.290527	266.000000
762.327637	265.000000
762.364685	255.000000
762.401794	261.000000
762.438904	266.000000
762.475952	257.000000
762.513062	250.000000
762.550110	254.000000
762.587219	270.000000
762.624329	261.000000
762.661377	263.000000
762.698486	267.000000
762.735596	267.000000
762.772644	261.000000
762.809753	256.000000
762.846863	266.000000
762.883911	267.000000
762.921021	269.000000
762.958069	262.000000
762.995117	281.000000
763.032227	272.000000
763.069336	265.000000
763.106323	261.000000
763.143433	267.000000
763.180481	269.000000
763.217590	268.000000
763.254639	266.000000
763.291687	269.000000
763.328735	271.000000
763.365845	266.000000
763.402893	261.000000
763.439941	273.000000
763.477051	274.000000
763.514038	278.000000
763.551147	266.000000
763.588196	275.000000
763.625244	269.000000
763.662292	283.000000
763.699402	282.000000
763.736389	275.000000
763.773499	285.000000
763.810486	278.000000
763.847534	274.000000
763.884644	285.000000
763.921631	279.000000
763.958679	290.000000
763.995728	275.000000
764.032776	292.000000
764.069824	270.000000
764.106873	289.000000
764.143860	292.000000
764.180969	277.000000
764.218018	289.000000
764.255005	281.000000
764.292053	285.000000
764.329102	300.000000
764.366089	300.000000
764.403137	297.000000
764.440125	293.000000
764.477173	288.000000
764.514221	300.000000
764.551208	297.000000
764.588257	283.000000
764.625305	296.000000
764.662292	302.000000
764.699341	303.000000
764.736389	299.000000
764.773376	313.000000
764.810425	304.000000
764.847473	309.000000
764.884399	314.000000
764.921448	315.000000
764.958435	316.000000
764.995483	299.000000
765.032532	315.000000
765.069458	299.000000
765.106506	305.000000
765.143555	296.000000
765.180481	299.000000
765.217529	312.000000
765.254578	306.000000
765.291504	310.000000
765.328552	311.000000
765.365540	302.000000
765.402527	328.000000
765.439575	305.000000
765.476501	305.000000
765.513550	305.000000
765.550537	314.000000
765.587463	317.000000
765.624512	312.000000
765.661499	304.000000
765.698486	322.000000
765.735474	307.000000
765.772461	309.000000
765.809448	318.000000
765.846436	315.000000
765.883423	328.000000
765.920410	324.000000
765.957397	316.000000
765.994385	322.000000
766.031311	335.000000
766.068359	327.000000
766.105286	328.000000
766.142273	327.000000
766.179260	319.000000
766.216187	313.000000
766.253174	312.000000
766.290161	321.000000
766.327148	330.000000
766.364136	327.000000
766.401123	346.000000
766.438049	324.000000
766.475037	344.000000
766.512024	339.000000
766.548950	356.000000
766.585937	341.000000
766.622864	339.000000
766.659790	329.000000
766.696777	331.000000
766.733704	345.000000
766.770691	338.000000
766.807678	354.000000
766.844604	353.000000
766.881531	358.000000
766.918518	366.000000
766.955444	356.000000
766.992432	357.000000
767.029358	363.000000
767.066284	363.000000
767.103271	358.000000
767.140198	390.000000
767.177124	373.000000
767.214050	371.000000
767.251038	366.000000
767.287964	365.000000
767.324890	363.000000
767.361816	374.000000
767.398743	369.000000
767.435730	369.000000
767.472595	376.000000
767.509583	386.000000
767.546509	370.000000
767.583374	385.000000
767.620361	367.000000
767.657288	373.000000
767.694214	377.000000
767.731140	376.000000
767.768066	387.000000
767.804993	383.000000
767.841919	376.000000
767.878845	378.000000
767.915710	393.000000
767.952698	386.000000
767.989563	397.000000
768.026489	387.000000
768.063416	391.000000
768.100281	392.000000
768.137207	395.000000
768.174133	391.000000
768.211060	406.000000
768.247986	395.000000
768.284912	394.000000
768.321777	393.000000
768.358704	393.000000
768.395630	400.000000
768.432495	397.000000
768.469421	403.000000
768.506348	407.000000
768.543152	412.000000
768.580078	416.000000
768.616943	417.000000
768.653870	418.000000
768.690796	424.000000
768.727661	408.000000
768.764587	412.000000
768.801453	409.000000
768.838318	418.000000
768.875244	423.000000
768.912109	439.000000
768.948975	415.000000
768.985901	414.000000
769.022766	420.000000
769.059631	426.000000
769.096558	424.000000
769.133362	434.000000
769.170288	437.000000
769.207214	423.000000
769.244019	437.000000
769.280945	430.000000
769.317810	436.000000
769.354675	437.000000
769.391541	443.000000
769.428406	450.000000
769.465271	452.000000
769.502136	443.000000
769.539062	445.000000
769.575867	445.000000
769.612732	447.000000
769.649597	456.000000
769.686462	460.000000
769.723328	451.000000
769.760193	455.000000
769.797058	458.000000
769.833923	462.000000
769.870728	463.000000
769.907593	464.000000
769.944519	465.000000
769.981323	465.000000
770.018188	471.000000
770.055054	462.000000
770.091858	470.000000
770.128723	481.000000
770.165588	481.000000
770.202393	468.000000
770.239258	479.000000
770.276062	475.000000
770.312927	486.000000
770.349792	485.000000
770.386597	480.000000
770.423462	490.000000
770.460327	499.000000
770.497131	486.000000
770.533997	479.000000
770.570862	496.000000
770.607605	494.000000
770.644470	503.000000
770.681335	499.000000
770.718140	496.000000
770.754944	487.000000
770.791809	493.000000
770.828613	480.000000
770.865479	497.000000
770.902222	501.000000
770.939087	497.000000
770.975952	485.000000
771.012695	497.000000
771.049561	509.000000
771.086365	496.000000
771.123169	493.000000
771.159973	500.000000
771.196838	499.000000
771.233582	511.000000
771.270447	507.000000
771.307251	507.000000
771.344055	502.000000
771.380859	512.000000
771.417664	502.000000
771.454468	523.000000
771.491272	517.000000
771.528076	516.000000
771.564880	511.000000
771.601685	531.000000
771.638428	514.000000
771.675293	528.000000
771.712097	512.000000
771.748840	534.000000
771.785645	519.000000
771.822449	533.000000
771.859253	539.000000
771.896057	541.000000
771.932861	551.000000
771.969604	534.000000
772.006409	524.000000
772.043213	544.000000
772.079956	553.000000
772.116760	550.000000
772.153503	554.000000
772.190308	567.000000
772.227112	551.000000
772.263855	549.000000
772.300659	547.000000
772.337463	562.000000
772.374207	562.000000
772.411011	545.000000
772.447754	558.000000
772.484497	572.000000
772.521301	562.000000
772.558105	558.000000
772.594849	572.000000
772.631592	582.000000
772.668396	578.000000
772.705139	572.000000
772.741882	571.000000
772.778625	586.000000
772.815430	598.000000
772.852173	595.000000
772.888916	607.000000
772.925720	600.000000
772.962463	611.000000
772.999207	604.000000
773.035950	617.000000
773.072754	617.000000
773.109436	617.000000
773.146240	603.000000
773.182922	610.000000
773.219727	624.000000
773.256470	623.000000
773.293152	618.000000
773.329956	627.000000
773.366699	624.000000
773.403381	616.000000
773.440186	623.000000
773.476929	635.000000
773.513611	642.000000
773.550354	639.000000
773.587158	643.000000
773.623840	629.000000
773.660583	626.000000
773.697327	651.000000
773.734009	649.000000
773.770813	651.000000
773.807495	644.000000
773.844238	642.000000
773.880981	661.000000
773.917664	649.000000
773.954407	677.000000
773.991150	666.000000
774.027832	681.000000
774.064575	653.000000
774.101318	659.000000
774.138000	659.000000
774.174744	673.000000
774.211487	687.000000
774.248108	670.000000
774.284851	665.000000
774.321594	676.000000
774.358276	678.000000
774.395020	706.000000
774.431702	701.000000
774.468384	701.000000
774.505127	691.000000
774.541809	691.000000
774.578491	693.000000
774.615234	695.000000
774.651917	703.000000
774.688599	717.000000
774.725342	727.000000
774.762024	710.000000
774.798706	712.000000
774.835449	713.000000
774.872070	732.000000
774.908813	733.000000
774.945496	731.000000
774.982178	734.000000
775.018860	706.000000
775.055542	715.000000
775.092224	725.000000
775.128967	743.000000
775.165588	756.000000
775.202271	735.000000
775.239014	737.000000
775.275635	743.000000
775.312317	732.000000
775.349060	760.000000
775.385681	769.000000
775.422363	757.000000
775.459045	765.000000
775.495667	739.000000
775.532410	748.000000
775.569092	770.000000
775.605713	772.000000
775.642395	769.000000
775.679016	767.000000
775.715698	761.000000
775.752380	753.000000
775.789001	755.000000
775.825684	778.000000
775.862366	779.000000
775.898987	794.000000
775.935669	779.000000
775.972351	782.000000
776.008972	779.000000
776.045654	802.000000
776.082336	791.000000
776.118958	794.000000
776.155640	785.000000
776.192322	788.000000
776.228882	787.000000
776.265564	799.000000
776.302185	803.000000
776.338867	817.000000
776.375488	784.000000
776.412109	805.000000
776.448792	795.000000
776.485413	821.000000
776.522034	805.000000
776.558716	798.000000
776.595337	807.000000
776.631958	801.000000
776.668579	800.000000
776.705261	805.000000
776.741882	803.000000
776.778503	809.000000
776.815186	804.000000
776.851746	797.000000
776.888367	799.000000
776.924988	787.000000
776.961609	804.000000
776.998291	806.000000
777.034851	814.000000
777.071472	821.000000
777.108154	803.000000
777.144714	804.000000
777.181335	825.000000
777.218018	822.000000
777.254578	849.000000
777.291199	835.000000
777.327759	853.000000
777.364380	859.000000
777.401062	863.000000
777.437622	882.000000
777.474243	880.000000
777.510864	894.000000
777.547424	877.000000
777.584045	880.000000
777.620667	877.000000
777.657227	887.000000
777.693848	893.000000
777.730469	904.000000
777.767029	890.000000
777.803650	894.000000
777.840271	881.000000
777.876831	887.000000
777.913452	889.000000
777.950012	890.000000
777.986633	877.000000
778.023193	874.000000
778.059753	875.000000
778.096375	879.000000
778.132996	897.000000
778.169556	893.000000
778.206116	882.000000
778.242737	893.000000
778.279297	909.000000
778.315857	894.000000
778.352478	899.000000
778.389038	916.000000
778.425598	928.000000
778.462219	919.000000
778.498718	920.000000
778.535339	935.000000
778.571838	936.000000
778.608459	934.000000
778.645020	929.000000
778.681580	933.000000
778.718140	925.000000
778.754761	918.000000
778.791260	918.000000
778.827881	938.000000
778.864441	930.000000
778.900940	945.000000
778.937561	955.000000
778.974121	956.000000
779.010620	957.000000
779.047241	970.000000
779.083801	957.000000
779.120300	974.000000
779.156860	990.000000
779.193359	994.000000
779.229980	1006.000000
779.266541	1010.000000
779.303040	1008.000000
779.339600	1006.000000
779.376160	1007.000000
779.412659	1016.000000
779.449219	1009.000000
779.485779	1022.000000
779.522278	995.000000
779.558838	1024.000000
779.595398	1024.000000
779.631897	1022.000000
779.668457	1024.000000
779.705017	1039.000000
779.741516	1002.000000
779.778076	983.000000
779.814575	1007.000000
779.851074	1014.000000
779.887634	1020.000000
779.924133	1022.000000
779.960693	1015.000000
779.997253	1019.000000
780.033691	1020.000000
780.070251	1034.000000
780.106812	1061.000000
780.143250	1067.000000
780.179810	1038.000000
780.216370	1051.000000
780.252808	1051.000000
780.289368	1039.000000
780.325867	1066.000000
780.362366	1081.000000
780.398865	1091.000000
780.435364	1083.000000
780.471863	1068.000000
780.508423	1060.000000
780.544861	1073.000000
780.581421	1095.000000
780.617920	1086.000000
780.654419	1072.000000
780.690918	1094.000000
780.727417	1088.000000
780.763916	1108.000000
780.800415	1118.000000
780.836914	1099.000000
780.873352	1127.000000
780.909912	1112.000000
780.946411	1093.000000
780.982849	1123.000000
781.019348	1141.000000
781.055786	1110.000000
781.092346	1106.000000
781.128845	1129.000000
781.165283	1108.000000
781.201782	1110.000000
781.238281	1113.000000
781.274719	1133.000000
781.311218	1131.000000
781.347717	1155.000000
781.384155	1133.000000
781.420654	1126.000000
781.457092	1157.000000
781.493591	1142.000000
781.530090	1149.000000
781.566528	1151.000000
781.602966	1144.000000
781.639465	1126.000000
781.675903	1128.000000
781.712402	1113.000000
781.748901	1136.000000
781.785278	1121.000000
781.821777	1122.000000
781.858276	1125.000000
781.894714	1116.000000
781.931152	1106.000000
781.967651	1121.000000
782.004089	1108.000000
782.040527	1112.000000
782.076965	1107.000000
782.113403	1099.000000
782.149902	1091.000000
782.186340	1097.000000
782.222778	1108.000000
782.259277	1083.000000
782.295654	1072.000000
782.332092	1071.000000
782.368591	1041.000000
782.404968	1036.000000
782.441467	1013.000000
782.477905	983.000000
782.514282	935.000000
782.550781	906.000000
782.587219	865.000000
782.623596	837.000000
782.660095	807.000000
782.696472	757.000000
782.732910	720.000000
782.769348	683.000000
782.805786	640.000000
782.842224	610.000000
782.878662	574.000000
782.915039	558.000000
782.951477	534.000000
782.987915	497.000000
783.024292	481.000000
783.060730	455.000000
783.097168	436.000000
783.133545	409.000000
783.169983	404.000000
783.206421	381.000000
783.242798	376.000000
783.279236	368.000000
783.315613	371.000000
783.352051	370.000000
783.388489	386.000000
783.424866	394.000000
783.461304	421.000000
783.497681	443.000000
783.534058	470.000000
783.570496	495.000000
783.606934	532.000000
783.643250	575.000000
783.679687	619.000000
783.716125	654.000000
783.752441	692.000000
783.788879	768.000000
783.825317	816.000000
783.861633	845.000000
783.898071	893.000000
783.934448	940.000000
783.970825	990.000000
784.007263	1024.000000
784.043579	1068.000000
784.080017	1105.000000
784.116394	1113.000000
784.152710	1122.000000
784.189148	1153.000000
784.225525	1172.000000
784.261902	1201.000000
784.298279	1213.000000
784.334656	1191.000000
784.371033	1202.000000
784.407410	1206.000000
784.443787	1210.000000
784.480164	1217.000000
784.516541	1225.000000
784.552856	1206.000000
784.589233	1179.000000
784.625610	1181.000000
784.661987	1236.000000
784.698364	1220.000000
784.734741	1238.000000
784.771057	1250.000000
784.807434	1244.000000
784.843811	1240.000000
784.880127	1238.000000
784.916504	1270.000000
784.952881	1314.000000
784.989197	1325.000000
785.025574	1348.000000
785.061951	1349.000000
785.098267	1371.000000
785.134644	1375.000000
785.170959	1400.000000
785.207275	1429.000000
785.243652	1425.000000
785.279968	1401.000000
785.316345	1387.000000
785.352722	1359.000000
785.388977	1366.000000
785.425354	1353.000000
785.461731	1348.000000
785.498047	1334.000000
785.534363	1272.000000
785.570679	1255.000000
785.606995	1237.000000
785.643372	1245.000000
785.679687	1260.000000
785.716003	1253.000000
785.752380	1227.000000
785.788635	1217.000000
785.825012	1215.000000
785.861328	1230.000000
785.897644	1249.000000
785.933960	1291.000000
785.970337	1313.000000
786.006592	1337.000000
786.042908	1340.000000
786.079285	1375.000000
786.115540	1413.000000
786.151855	1465.000000
786.188171	1494.000000
786.224487	1505.000000
786.260803	1514.000000
786.297119	1507.000000
786.333435	1539.000000
786.369751	1533.000000
786.406006	1535.000000
786.442322	1521.000000
786.478638	1462.000000
786.514954	1454.000000
786.551270	1402.000000
786.587585	1386.000000
786.623840	1350.000000
786.660156	1346.000000
786.696472	1327.000000
786.732727	1287.000000
786.769043	1279.000000
786.805298	1249.000000
786.841614	1258.000000
786.877930	1299.000000
786.914124	1280.000000
786.950439	1315.000000
786.986755	1318.000000
787.023010	1325.000000
787.059326	1337.000000
787.095642	1362.000000
787.131836	1427.000000
787.168152	1421.000000
787.204468	1435.000000
787.240723	1457.000000
787.276978	1463.000000
787.313293	1497.000000
787.349548	1513.000000
787.385803	1524.000000
787.422058	1531.000000
787.458313	1511.000000
787.494629	1496.000000
787.530823	1473.000000
787.567139	1467.000000
787.603455	1463.000000
787.639648	1456.000000
787.675903	1432.000000
787.712219	1393.000000
787.748413	1372.000000
787.784729	1364.000000
787.820984	1369.000000
787.857178	1361.000000
787.893494	1346.000000
787.929749	1333.000000
787.965942	1339.000000
788.002258	1355.000000
788.038452	1377.000000
788.074707	1363.000000
788.110962	1379.000000
788.147217	1369.000000
788.183472	1379.000000
788.219727	1373.000000
788.255920	1371.000000
788.292175	1418.000000
788.328430	1443.000000
788.364624	1426.000000
788.400879	1433.000000
788.437134	1424.000000
788.473328	1428.000000
788.509583	1429.000000
788.545837	1432.000000
788.582031	1436.000000
788.618286	1446.000000
788.654480	1444.000000
788.690735	1438.000000
788.726990	1445.000000
788.763184	1452.000000
788.799377	1471.000000
788.835632	1478.000000
788.871826	1487.000000
788.908081	1482.000000
788.944336	1471.000000
788.980469	1500.000000
789.016724	1469.000000
789.052979	1487.000000
789.089111	1456.000000
789.125366	1475.000000
789.161621	1442.000000
789.197754	1455.000000
789.234009	1439.000000
789.270142	1432.000000
789.306396	1426.000000
789.342590	1436.000000
789.378784	1411.000000
789.414978	1388.000000
789.451233	1374.000000
789.487366	1384.000000
789.523621	1399.000000
789.559814	1421.000000
789.595947	1421.000000
789.632202	1409.000000
789.668335	1393.000000
789.704529	1400.000000
789.740784	1438.000000
789.776917	1449.000000
789.813110	1447.000000
789.849304	1482.000000
789.885498	1463.000000
789.921692	1455.000000
789.957886	1456.000000
789.994019	1470.000000
790.030212	1485.000000
790.066406	1505.000000
790.102539	1500.000000
790.138733	1487.000000
790.174927	1459.000000
790.211060	1447.000000
790.247253	1467.000000
790.283386	1480.000000
790.319580	1478.000000
790.355774	1435.000000
790.391907	1330.000000
790.428101	1136.000000
790.464294	925.000000
790.500427	812.000000
790.536621	778.000000
790.572754	856.000000
790.608887	955.000000
790.645081	1008.000000
790.681274	1080.000000
790.717346	1114.000000
790.753540	1150.000000
790.789734	1170.000000
790.825867	1197.000000
790.862000	1195.000000
790.898132	1224.000000
790.934265	1243.000000
790.970459	1266.000000
791.006592	1296.000000
791.042725	1328.000000
791.078918	1318.000000
791.114990	1326.000000
791.151184	1322.000000
791.187317	1363.000000
791.223389	1383.000000
791.259583	1384.000000
791.295715	1409.000000
791.331848	1407.000000
791.367981	1408.000000
791.404114	1411.000000
791.440247	1421.000000
791.476379	1450.000000
791.512451	1450.000000
791.548584	1452.000000
791.584778	1446.000000
791.620850	1441.000000
791.656982	1433.000000
791.693115	1443.000000
791.729187	1458.000000
791.765381	1474.000000
791.801514	1479.000000
791.837585	1464.000000
791.873718	1469.000000
791.909851	1466.000000
791.945923	1477.000000
791.982056	1485.000000
792.018188	1498.000000
792.054260	1487.000000
792.090393	1482.000000
792.126465	1453.000000
792.162598	1480.000000
792.198669	1478.000000
792.234741	1509.000000
792.270874	1501.000000
792.307007	1481.000000
792.343079	1439.000000
792.379150	1429.000000
792.415283	1423.000000
792.451355	1458.000000
792.487488	1433.000000
792.523560	1458.000000
792.559631	1433.000000
792.595764	1417.000000
792.631836	1404.000000
792.667908	1417.000000
792.703979	1428.000000
792.740051	1446.000000
792.776184	1454.000000
792.812256	1428.000000
792.848328	1411.000000
792.884399	1433.000000
792.920471	1433.000000
792.956543	1454.000000
792.992615	1464.000000
793.028748	1461.000000
793.064758	1440.000000
793.100830	1425.000000
793.136963	1427.000000
793.172974	1452.000000
793.209045	1454.000000
793.245178	1481.000000
793.281189	1448.000000
793.317261	1429.000000
793.353271	1415.000000
793.389404	1436.000000
793.425476	1429.000000
793.461487	1425.000000
793.497559	1431.000000
793.533630	1431.000000
793.569641	1398.000000
793.605713	1367.000000
793.641785	1381.000000
793.677795	1394.000000
793.713867	1409.000000
793.749878	1424.000000
793.785950	1431.000000
793.822021	1418.000000
793.858032	1395.000000
793.894104	1407.000000
793.930176	1422.000000
793.966187	1449.000000
794.002258	1438.000000
794.038269	1434.000000
794.074280	1431.000000
794.110352	1437.000000
794.146423	1419.000000
794.182373	1442.000000
794.218445	1450.000000
794.254517	1439.000000
794.290466	1412.000000
794.326538	1384.000000
794.362549	1379.000000
794.398560	1388.000000
794.434631	1388.000000
794.470581	1368.000000
794.506653	1352.000000
794.542664	1355.000000
794.578674	1319.000000
794.614685	1320.000000
794.650757	1329.000000
794.686707	1348.000000
794.722778	1347.000000
794.758789	1349.000000
794.794739	1342.000000
794.830811	1368.000000
794.866821	1360.000000
794.902771	1390.000000
794.938843	1399.000000
794.974792	1409.000000
795.010803	1405.000000
795.046814	1392.000000
795.082825	1357.000000
795.118835	1374.000000
795.154846	1374.000000
795.190796	1386.000000
795.226807	1369.000000
795.262817	1382.000000
795.298767	1352.000000
795.334778	1340.000000
795.370850	1325.000000
795.406799	1347.000000
795.442810	1349.000000
795.478821	1334.000000
795.514709	1303.000000
795.550720	1322.000000
795.586670	1300.000000
795.622681	1301.000000
795.658691	1333.000000
795.694641	1336.000000
795.730652	1343.000000
795.766663	1358.000000
795.802551	1339.000000
795.838562	1352.000000
795.874573	1353.000000
795.910522	1365.000000
795.946472	1350.000000
795.982483	1364.000000
796.018433	1337.000000
796.054382	1331.000000
796.090393	1326.000000
796.126282	1300.000000
796.162292	1321.000000
796.198242	1326.000000
796.234192	1317.000000
796.270203	1272.000000
796.306091	1293.000000
796.342041	1298.000000
796.378052	1292.000000
796.413940	1319.000000
796.449951	1326.000000
796.485901	1302.000000
796.521790	1293.000000
796.557800	1302.000000
796.593689	1300.000000
796.629639	1308.000000
796.665649	1331.000000
796.701599	1327.000000
796.737488	1314.000000
796.773437	1311.000000
796.809387	1320.000000
796.845337	1338.000000
796.881287	1354.000000
796.917175	1358.000000
796.953125	1349.000000
796.989075	1336.000000
797.024963	1308.000000
797.060913	1309.000000
797.096863	1315.000000
797.132751	1325.000000
797.168701	1317.000000
797.204590	1300.000000
797.240540	1266.000000
797.276489	1250.000000
797.312439	1249.000000
797.348328	1270.000000
797.384277	1281.000000
797.420166	1296.000000
797.456055	1280.000000
797.492004	1250.000000
797.527893	1253.000000
797.563843	1267.000000
797.599731	1264.000000
797.635620	1280.000000
797.671570	1286.000000
797.707520	1293.000000
797.743347	1250.000000
797.779297	1253.000000
797.815125	1261.000000
797.851074	1286.000000
797.887024	1301.000000
797.922913	1270.000000
797.958801	1263.000000
797.994690	1236.000000
798.030579	1236.000000
798.066467	1259.000000
798.102356	1260.000000
798.138245	1265.000000
798.174133	1242.000000
798.210083	1243.000000
798.245911	1230.000000
798.281799	1238.000000
798.317749	1242.000000
798.353577	1263.000000
798.389465	1266.000000
798.425293	1228.000000
798.461243	1217.000000
798.497131	1215.000000
798.532959	1205.000000
798.568848	1247.000000
798.604736	1226.000000
798.640564	1221.000000
798.676453	1213.000000
798.712402	1185.000000
798.748230	1201.000000
798.784119	1208.000000
798.820007	1220.000000
798.855835	1233.000000
798.891724	1223.000000
798.927551	1192.000000
798.963379	1189.000000
798.999268	1203.000000
799.035095	1193.000000
799.070984	1198.000000
799.106873	1198.000000
799.142700	1197.000000
799.178528	1168.000000
799.214417	1176.000000
799.250244	1187.000000
799.286133	1190.000000
799.321960	1210.000000
799.357788	1195.000000
799.393677	1202.000000
799.429504	1185.000000
799.465332	1166.000000
799.501221	1175.000000
799.537048	1204.000000
799.572876	1202.000000
799.608704	1180.000000
799.644531	1198.000000
799.680359	1192.000000
799.716248	1190.000000
799.752014	1203.000000
799.787903	1192.000000
799.823730	1205.000000
799.859558	1187.000000
799.895386	1165.000000
799.931213	1146.000000
799.967041	1134.000000
800.002869	1143.000000
800.038696	1197.000000
800.074463	1172.000000
800.110352	1162.000000
800.146179	1129.000000
800.181946	1138.000000
800.217773	1137.000000
800.253540	1135.000000
800.289429	1152.000000
800.325256	1157.000000
800.361023	1114.000000
800.396851	1110.000000
800.432678	1115.000000
800.468445	1129.000000
800.504272	1137.000000
800.540100	1115.000000
800.575867	1114.000000
800.611694	1121.000000
800.647461	1097.000000
800.683289	1077.000000
800.719116	1097.000000
800.754883	1106.000000
800.790649	1085.000000
800.826477	1086.000000
800.862244	1093.000000
800.898071	1057.000000
800.933838	1065.000000
800.969604	1060.000000
801.005432	1065.000000
801.041199	1067.000000
801.076965	1044.000000
801.112793	1028.000000
801.148560	1022.000000
801.184326	1032.000000
801.220154	1032.000000
801.255859	1027.000000
801.291687	1033.000000
801.327454	1016.000000
801.363281	1008.000000
801.398987	1006.000000
801.434814	990.000000
801.470520	1016.000000
801.506287	1001.000000
801.542114	993.000000
801.577820	995.000000
801.613647	983.000000
801.649414	970.000000
801.685120	1001.000000
801.720886	993.000000
801.756714	981.000000
801.792419	972.000000
801.828186	963.000000
801.863892	961.000000
801.899719	966.000000
801.935486	970.000000
801.971252	969.000000
802.006958	973.000000
802.042725	971.000000
802.078430	961.000000
802.114197	942.000000
802.149963	972.000000
802.185669	950.000000
802.221436	949.000000
802.257202	970.000000
802.292908	952.000000
802.328674	961.000000
802.364441	948.000000
802.400146	940.000000
802.435913	949.000000
802.471558	959.000000
802.507324	933.000000
802.543091	938.000000
802.578796	932.000000
802.614502	945.000000
802.650269	953.000000
802.685974	954.000000
802.721741	955.000000
802.757446	952.000000
802.793152	942.000000
802.828918	949.000000
802.864624	949.000000
802.900330	948.000000
802.936035	943.000000
802.971802	943.000000
803.007446	932.000000
803.043213	917.000000
803.078857	921.000000
803.114624	904.000000
803.150330	927.000000
803.185974	914.000000
803.221741	902.000000
803.257446	905.000000
803.293152	906.000000
803.328857	887.000000
803.364563	897.000000
803.400208	891.000000
803.435974	906.000000
803.471680	881.000000
803.507324	887.000000
803.543030	879.000000
803.578735	873.000000
803.614441	863.000000
803.650146	886.000000
803.685791	872.000000
803.721497	871.000000
803.757202	874.000000
803.792847	860.000000
803.828552	843.000000
803.864258	848.000000
803.899902	840.000000
803.935608	827.000000
803.971313	855.000000
804.006958	836.000000
804.042664	825.000000
804.078308	842.000000
804.113953	823.000000
804.149658	847.000000
804.185364	833.000000
804.221008	823.000000
804.256714	814.000000
804.292297	813.000000
804.328003	807.000000
804.363708	810.000000
804.399292	815.000000
804.434998	805.000000
804.470703	795.000000
804.506287	804.000000
804.541992	795.000000
804.577637	803.000000
804.613281	782.000000
804.648926	791.000000
804.684570	794.000000
804.720215	794.000000
804.755920	783.000000
804.791565	782.000000
804.827209	786.000000
804.862854	801.000000
804.898437	801.000000
804.934143	801.000000
804.969788	786.000000
805.005371	790.000000
805.041077	790.000000
805.076721	779.000000
805.112305	791.000000
805.147949	785.000000
805.183655	780.000000
805.219238	774.000000
805.254883	778.000000
805.290466	784.000000
805.326111	782.000000
805.361755	771.000000
805.397400	773.000000
805.432983	772.000000
805.468628	777.000000
805.504211	775.000000
805.539856	771.000000
805.575500	776.000000
805.611084	777.000000
805.646729	758.000000
805.682373	768.000000
805.717957	766.000000
805.753601	766.000000
805.789246	744.000000
805.824768	771.000000
805.860413	777.000000
805.895996	760.000000
805.931641	754.000000
805.967224	758.000000
806.002869	753.000000
806.038452	747.000000
806.074036	756.000000
806.109619	746.000000
806.145264	741.000000
806.180847	744.000000
806.216431	733.000000
806.252014	740.000000
806.287659	731.000000
806.323181	734.000000
806.358826	731.000000
806.394409	716.000000
806.429993	703.000000
806.465576	723.000000
806.501160	711.000000
806.536743	705.000000
806.572327	700.000000
806.607910	713.000000
806.643494	714.000000
806.679077	693.000000
806.714661	701.000000
806.750244	684.000000
806.785828	694.000000
806.821350	692.000000
806.856934	696.000000
806.892517	673.000000
806.928101	666.000000
806.963684	674.000000
806.999268	684.000000
807.034790	659.000000
807.070374	660.000000
807.105896	649.000000
807.141479	649.000000
807.177063	649.000000
807.212585	644.000000
807.248169	655.000000
807.283752	662.000000
807.319275	660.000000
807.354858	653.000000
807.390381	638.000000
807.425903	637.000000
807.461487	633.000000
807.497070	628.000000
807.532593	627.000000
807.568115	635.000000
807.603699	627.000000
807.639221	621.000000
807.674744	630.000000
807.710266	627.000000
807.745850	628.000000
807.781372	619.000000
807.816895	620.000000
807.852417	618.000000
807.888000	606.000000
807.923523	603.000000
807.959045	619.000000
807.994629	605.000000
808.030090	607.000000
808.065613	612.000000
808.101135	615.000000
808.136658	614.000000
808.172241	612.000000
808.207764	607.000000
808.243225	605.000000
808.278809	599.000000
808.314270	605.000000
808.349792	590.000000
808.385315	590.000000
808.420837	605.000000
808.456360	599.000000
808.491882	589.000000
808.527344	600.000000
808.562866	601.000000
808.598389	593.000000
808.633850	579.000000
808.669434	581.000000
808.704895	581.000000
808.740417	595.000000
808.775940	589.000000
808.811462	584.000000
808.846924	586.000000
808.882385	581.000000
808.917847	561.000000
808.953369	573.000000
808.988892	569.000000
809.024353	574.000000
809.059875	571.000000
809.095398	571.000000
809.130798	558.000000
809.166321	563.000000
809.201843	562.000000
809.237305	570.000000
809.272766	572.000000
809.308228	560.000000
809.343750	561.000000
809.379211	549.000000
809.414734	556.000000
809.450134	556.000000
809.485657	532.000000
809.521118	551.000000
809.556580	539.000000
809.592102	543.000000
809.627502	539.000000
809.663025	529.000000
809.698486	527.000000
809.733887	521.000000
809.769409	529.000000
809.804871	510.000000
809.840271	524.000000
809.875793	521.000000
809.911194	526.000000
809.946655	517.000000
809.982178	513.000000
810.017639	517.000000
810.053040	519.000000
810.088501	508.000000
810.123901	509.000000
810.159424	512.000000
810.194885	496.000000
810.230286	511.000000
810.265747	501.000000
810.301208	497.000000
810.336609	501.000000
810.372070	484.000000
810.407532	476.000000
810.442932	497.000000
810.478394	505.000000
810.513794	495.000000
810.549255	491.000000
810.584717	495.000000
810.620117	487.000000
810.655518	494.000000
810.690979	489.000000
810.726379	485.000000
810.761841	479.000000
810.797302	477.000000
810.832642	472.000000
810.868103	488.000000
810.903564	466.000000
810.938904	481.000000
810.974365	474.000000
811.009827	482.000000
811.045166	458.000000
811.080627	461.000000
811.115967	461.000000
811.151428	474.000000
811.186829	461.000000
811.222229	467.000000
811.257629	463.000000
811.293091	470.000000
811.328430	468.000000
811.363892	464.000000
811.399292	465.000000
811.434631	458.000000
811.470093	463.000000
811.505493	458.000000
811.540833	460.000000
811.576294	465.000000
811.611694	454.000000
811.647034	461.000000
811.682434	462.000000
811.717773	458.000000
811.753235	465.000000
811.788635	458.000000
811.823975	464.000000
811.859375	463.000000
811.894775	451.000000
811.930115	446.000000
811.965515	451.000000
812.000916	455.000000
812.036255	451.000000
812.071655	449.000000
812.106995	450.000000
812.142395	443.000000
812.177795	445.000000
812.213196	445.000000
812.248474	446.000000
812.283875	438.000000
812.319214	432.000000
812.354614	436.000000
812.390015	434.000000
812.425293	432.000000
812.460693	437.000000
812.496094	431.000000
812.531433	418.000000
812.566772	426.000000
812.602173	429.000000
812.637451	430.000000
812.672852	424.000000
812.708191	426.000000
812.743530	418.000000
812.778931	403.000000
812.814270	414.000000
812.849609	420.000000
812.884949	413.000000
812.920227	404.000000
812.955627	424.000000
812.990967	419.000000
813.026306	412.000000
813.061646	401.000000
813.096985	396.000000
813.132324	394.000000
813.167664	393.000000
813.203003	399.000000
813.238281	395.000000
813.273682	382.000000
813.308960	385.000000
813.344299	389.000000
813.379639	396.000000
813.414978	383.000000
813.450256	386.000000
813.485596	388.000000
813.520874	380.000000
813.556213	389.000000
813.591614	382.000000
813.626831	374.000000
813.662170	380.000000
813.697510	397.000000
813.732788	383.000000
813.768127	388.000000
813.803467	382.000000
813.838745	375.000000
813.874084	373.000000
813.909363	377.000000
813.944641	376.000000
813.979980	370.000000
814.015320	372.000000
814.050598	369.000000
814.085876	369.000000
814.121155	373.000000
814.156494	363.000000
814.191772	370.000000
814.227051	362.000000
814.262390	367.000000
814.297668	366.000000
814.332947	371.000000
814.368225	356.000000
814.403564	361.000000
814.438782	360.000000
814.474121	367.000000
814.509338	360.000000
814.544617	367.000000
814.579956	349.000000
814.615173	371.000000
814.650513	362.000000
814.685791	359.000000
814.721008	355.000000
814.756348	357.000000
814.791626	355.000000
814.826843	359.000000
814.862122	353.000000
814.897400	356.000000
814.932678	357.000000
814.967957	359.000000
815.003235	350.000000
815.038452	343.000000
815.073730	339.000000
815.108948	355.000000
815.144226	345.000000
815.179504	347.000000
815.214722	332.000000
815.250000	337.000000
815.285278	346.000000
815.320496	341.000000
815.355774	339.000000
815.391052	341.000000
815.426270	342.000000
815.461487	337.000000
815.496765	337.000000
815.531982	326.000000
815.567261	326.000000
815.602539	331.000000
815.637695	332.000000
815.672974	334.000000
815.708191	336.000000
815.743408	335.000000
815.778687	331.000000
815.813904	334.000000
815.849121	324.000000
815.884399	326.000000
815.919556	320.000000
815.954834	324.000000
815.990051	325.000000
816.025269	330.000000
816.060486	326.000000
816.095703	319.000000
816.130920	321.000000
816.166199	322.000000
816.201416	325.000000
816.236572	320.000000
816.271851	317.000000
816.307007	327.000000
816.342224	308.000000
816.377441	311.000000
816.412659	305.000000
816.447876	314.000000
816.483093	315.000000
816.518250	314.000000
816.553467	305.000000
816.588745	314.000000
816.623901	303.000000
816.659119	300.000000
816.694275	312.000000
816.729492	305.000000
816.764709	331.000000
816.799927	302.000000
816.835083	301.000000
816.870300	297.000000
816.905457	303.000000
816.940674	306.000000
816.975830	292.000000
817.010986	298.000000
817.046204	298.000000
817.081421	295.000000
817.116577	292.000000
817.151733	309.000000
817.186951	300.000000
817.222107	304.000000
817.257324	305.000000
817.292419	300.000000
817.327637	292.000000
817.362854	299.000000
817.398010	287.000000
817.433167	295.000000
817.468323	290.000000
817.503479	292.000000
817.538635	300.000000
817.573853	301.000000
817.608948	297.000000
817.644165	293.000000
817.679321	293.000000
817.714478	292.000000
817.749634	297.000000
817.784790	310.000000
817.819946	295.000000
817.855103	276.000000
817.890198	288.000000
817.925415	280.000000
817.960571	290.000000
817.995667	286.000000
818.030823	286.000000
818.066040	284.000000
818.101135	291.000000
818.136292	285.000000
818.171448	288.000000
818.206543	285.000000
818.241699	294.000000
818.276855	287.000000
818.311951	288.000000
818.347107	278.000000
818.382263	295.000000
818.417358	296.000000
818.452515	291.000000
818.487610	295.000000
818.522766	284.000000
818.557922	292.000000
818.593018	290.000000
818.628113	285.000000
818.663269	279.000000
818.698364	278.000000
818.733521	287.000000
818.768677	280.000000
818.803711	278.000000
818.838867	276.000000
818.874023	276.000000
818.909058	280.000000
818.944214	273.000000
818.979370	275.000000
819.014404	273.000000
819.049561	273.000000
819.084595	277.000000
819.119751	271.000000
819.154846	278.000000
819.189941	273.000000
819.225037	272.000000
819.260193	264.000000
819.295227	264.000000
819.330322	262.000000
819.365479	261.000000
819.400513	292.000000
819.435608	257.000000
819.470764	254.000000
819.505798	256.000000
819.540894	268.000000
819.575989	260.000000
819.611084	270.000000
819.646179	267.000000
819.681213	267.000000
819.716309	263.000000
819.751404	261.000000
819.786438	270.000000
819.821533	257.000000
819.856628	262.000000
819.891663	265.000000
819.926758	265.000000
819.961853	265.000000
819.996887	251.000000
820.031982	261.000000
820.067017	255.000000
820.102112	290.000000
820.137207	254.000000
820.172302	279.000000
820.207275	259.000000
820.242371	254.000000
820.277405	250.000000
820.312500	255.000000
820.347534	251.000000
820.382568	261.000000
820.417664	255.000000
820.452759	253.000000
820.487732	252.000000
820.522827	255.000000
820.557861	248.000000
820.592896	256.000000
820.627930	255.000000
820.662964	250.000000
820.698059	261.000000
820.733093	249.000000
820.768127	259.000000
820.803162	252.000000
820.838196	250.000000
820.873230	250.000000
820.908264	255.000000
820.943298	245.000000
820.978333	255.000000
821.013367	253.000000
821.048401	259.000000
821.083435	253.000000
821.118469	246.000000
821.153503	254.000000
821.188477	249.000000
821.223511	245.000000
821.258484	248.000000
821.293579	246.000000
821.328613	244.000000
821.363647	241.000000
821.398621	244.000000
821.433655	237.000000
821.468628	257.000000
821.503662	241.000000
821.538696	253.000000
821.573669	240.000000
821.608704	247.000000
821.643677	241.000000
821.678650	252.000000
821.713684	248.000000
821.748718	244.000000
821.783691	249.000000
821.818726	246.000000
821.853638	244.000000
821.888672	240.000000
821.923706	244.000000
821.958618	238.000000
821.993652	239.000000
822.028687	246.000000
822.063599	248.000000
822.098633	243.000000
822.133667	234.000000
822.168579	240.000000
822.203613	241.000000
822.238586	233.000000
822.273560	246.000000
822.308533	230.000000
822.343567	233.000000
822.378479	242.000000
822.413452	241.000000
822.448425	228.000000
822.483398	243.000000
822.518372	243.000000
822.553345	234.000000
822.588318	243.000000
822.623291	234.000000
822.658203	226.000000
822.693237	234.000000
822.728210	223.000000
822.763123	235.000000
822.798096	224.000000
822.833069	231.000000
822.867981	222.000000
822.902954	235.000000
822.937927	231.000000
822.972900	239.000000
823.007874	218.000000
823.042725	232.000000
823.077698	240.000000
823.112671	226.000000
823.147583	228.000000
823.182556	228.000000
823.217529	230.000000
823.252441	228.000000
823.287415	241.000000
823.322388	233.000000
823.357239	226.000000
823.392212	236.000000
823.427185	234.000000
823.462097	228.000000
823.497009	233.000000
823.531982	227.000000
823.566895	234.000000
823.601807	224.000000
823.636719	226.000000
823.671631	235.000000
823.706604	226.000000
823.741455	230.000000
823.776428	225.000000
823.811340	233.000000
823.846252	230.000000
823.881165	233.000000
823.916138	226.000000
823.950989	236.000000
823.985901	224.000000
824.020813	227.000000
824.055725	225.000000
824.090637	215.000000
824.125610	229.000000
824.160461	222.000000
824.195374	225.000000
824.230225	229.000000
824.265198	220.000000
824.300110	217.000000
824.334961	233.000000
824.369873	216.000000
824.404785	227.000000
824.439636	228.000000
824.474548	211.000000
824.509460	213.000000
824.544312	226.000000
824.579224	226.000000
824.614075	228.000000
824.648987	220.000000
824.683899	223.000000
824.718811	218.000000
824.753662	226.000000
824.788574	229.000000
824.823364	223.000000
824.858276	217.000000
824.893188	229.000000
824.928040	229.000000
824.962952	223.000000
824.997803	228.000000
825.032654	224.000000
825.067566	224.000000
825.102417	219.000000
825.137268	219.000000
825.172119	223.000000
825.206970	217.000000
825.241882	216.000000
825.276733	217.000000
825.311646	218.000000
825.346436	211.000000
825.381348	210.000000
825.416138	221.000000
825.450989	215.000000
825.485901	210.000000
825.520691	211.000000
825.555542	211.000000
825.590454	213.000000
825.625244	209.000000
825.660095	225.000000
825.695007	222.000000
825.729797	215.000000
825.764648	215.000000
825.799438	213.000000
825.834290	216.000000
825.869202	208.000000
825.903992	220.000000
825.938843	211.000000
825.973694	210.000000
826.008484	224.000000
826.043335	210.000000
826.078186	206.000000
826.112976	220.000000
826.147827	220.000000
826.182678	225.000000
826.217468	205.000000
826.252319	222.000000
826.287109	210.000000
826.321899	225.000000
826.356750	214.000000
826.391541	210.000000
826.426392	221.000000
826.461182	213.000000
826.495972	209.000000
826.530823	206.000000
826.565613	215.000000
826.600403	211.000000
826.635254	217.000000
826.670044	201.000000
826.704834	206.000000
826.739685	206.000000
826.774475	216.000000
826.809265	211.000000
826.844055	208.000000
826.878906	217.000000
826.913635	214.000000
826.948425	213.000000
826.983215	215.000000
827.018005	215.000000
827.052856	208.000000
827.087585	216.000000
827.122375	204.000000
827.157227	211.000000
827.191956	225.000000
827.226746	203.000000
827.261536	212.000000
827.296265	201.000000
827.331116	209.000000
827.365906	209.000000
827.400635	209.000000
827.435425	199.000000
827.470215	215.000000
827.504944	207.000000
827.539734	216.000000
827.574463	206.000000
827.609253	218.000000
827.644043	211.000000
827.678772	214.000000
827.713562	205.000000
827.748352	210.000000
827.783081	205.000000
827.817871	208.000000
827.852600	212.000000
827.887329	209.000000
827.922119	197.000000
827.956848	213.000000
827.991638	223.000000
828.026367	207.000000
828.061157	207.000000
828.095886	205.000000
828.130615	226.000000
828.165344	194.000000
828.200073	210.000000
828.234863	204.000000
828.269592	208.000000
828.304321	208.000000
828.339111	208.000000
828.373779	202.000000
828.408569	216.000000
828.443298	210.000000
828.477966	202.000000
828.512756	203.000000
828.547424	204.000000
828.582214	201.000000
828.616943	205.000000
828.651672	199.000000
828.686340	211.000000
828.721130	198.000000
828.755798	205.000000
828.790527	203.000000
828.825256	206.000000
828.859924	205.000000
828.894714	214.000000
828.929443	208.000000
828.964111	207.000000
828.998840	209.000000
829.033569	203.000000
829.068237	205.000000
829.102966	203.000000
829.137634	203.000000
829.172363	205.000000
829.207092	208.000000
829.241821	198.000000
829.276489	197.000000
829.311157	209.000000
829.345825	202.000000
829.380554	209.000000
829.415283	203.000000
829.449951	197.000000
829.484619	214.000000
829.519348	215.000000
829.554016	209.000000
829.588745	205.000000
829.623413	193.000000
829.658081	209.000000
829.692749	199.000000
829.727417	207.000000
829.762146	205.000000
829.796814	196.000000
829.831482	202.000000
829.866150	198.000000
829.900879	203.000000
829.935486	207.000000
829.970154	201.000000
830.004883	214.000000
830.039490	208.000000
830.074219	197.000000
830.108887	205.000000
830.143494	207.000000
830.178223	194.000000
830.212891	201.000000
830.247498	202.000000
830.282166	207.000000
830.316772	212.000000
830.351501	199.000000
830.386169	202.000000
830.420776	197.000000
830.455444	202.000000
830.490112	198.000000
830.524719	198.000000
830.559387	201.000000
830.594055	206.000000
830.628662	202.000000
830.663330	203.000000
830.697998	210.000000
830.732605	200.000000
830.767273	207.000000
830.801941	201.000000
830.836487	213.000000
830.871155	209.000000
830.905762	203.000000
830.940430	194.000000
830.975098	198.000000
831.009644	203.000000
831.044312	217.000000
831.078979	207.000000
831.113525	190.000000
831.148193	203.000000
831.182861	204.000000
831.217407	204.000000
831.252075	221.000000
831.286621	200.000000
831.321289	196.000000
831.355896	201.000000
831.390564	208.000000
831.425110	197.000000
831.459778	211.000000
831.494324	213.000000
831.528931	202.000000
831.563599	205.000000
831.598145	197.000000
831.632751	195.000000
831.667419	199.000000
831.701965	202.000000
831.736572	203.000000
831.771179	195.000000
831.805786	199.000000
831.840393	203.000000
831.874939	197.000000
831.909546	207.000000
831.944153	191.000000
831.978760	203.000000
832.013306	193.000000
832.047913	207.000000
832.082458	214.000000
832.117065	201.000000
832.151672	209.000000
832.186218	200.000000
832.220825	202.000000
832.255432	192.000000
832.289978	198.000000
832.324585	209.000000
832.359192	205.000000
832.393677	205.000000
832.428284	202.000000
832.462830	203.000000
832.497437	203.000000
832.531982	211.000000
832.566589	200.000000
832.601135	207.000000
832.635681	193.000000
832.670227	203.000000
832.704773	212.000000
832.739380	207.000000
832.773926	201.000000
832.808472	198.000000
832.843079	201.000000
832.877563	205.000000
832.912170	199.000000
832.946716	196.000000
832.981201	206.000000
833.015808	208.000000
833.050293	199.000000
833.084839	196.000000
833.119446	200.000000
833.153992	209.000000
833.188477	200.000000
833.223022	199.000000
833.257568	205.000000
833.292114	210.000000
833.326660	214.000000
833.361145	201.000000
833.395691	190.000000
833.430237	201.000000
833.464783	207.000000
833.499329	202.000000
833.533875	197.000000
833.568359	210.000000
833.602905	215.000000
833.637390	211.000000
833.671875	197.000000
833.706421	199.000000
833.740906	203.000000
833.775452	190.000000
833.809998	201.000000
833.844482	206.000000
833.879028	201.000000
833.913513	193.000000
833.947998	203.000000
833.982544	198.000000
834.017090	197.000000
834.051514	189.000000
834.086060	206.000000
834.120544	200.000000
834.155029	203.000000
834.189575	197.000000
834.223999	207.000000
834.258545	200.000000
834.293030	202.000000
834.327515	200.000000
834.362000	198.000000
834.396545	201.000000
834.430969	200.000000
834.465454	204.000000
834.500000	192.000000
834.534424	197.000000
834.568970	194.000000
834.603455	190.000000
834.637878	195.000000
834.672363	202.000000
834.706909	204.000000
834.741333	199.000000
834.775818	194.000000
834.810242	197.000000
834.844727	203.000000
834.879211	202.000000
834.913635	205.000000
834.948181	202.000000
834.982666	202.000000
835.017090	202.000000
835.051575	205.000000
835.086060	199.000000
835.120483	205.000000
835.154907	208.000000
835.189331	203.000000
835.223816	203.000000
835.258301	197.000000
835.292786	198.000000
835.327209	208.000000
835.361694	198.000000
835.396057	197.000000
835.430542	206.000000
835.465027	199.000000
835.499390	194.000000
835.533875	220.000000
835.568359	196.000000
835.602722	195.000000
835.637207	202.000000
835.671692	194.000000
835.706055	220.000000
835.740540	203.000000
835.774902	203.000000
835.809387	198.000000
835.843811	196.000000
835.878235	208.000000
835.912659	194.000000
835.947083	196.000000
835.981506	201.000000
836.015930	191.000000
836.050354	207.000000
836.084778	206.000000
836.119202	209.000000
836.153625	214.000000
836.187988	200.000000
836.222473	202.000000
836.256897	202.000000
836.291260	201.000000
836.325684	208.000000
836.360046	205.000000
836.394470	197.000000
836.428894	210.000000
836.463318	201.000000
836.497681	205.000000
836.532104	213.000000
836.566467	204.000000
836.600891	197.000000
836.635315	208.000000
836.669678	205.000000
836.704102	205.000000
836.738525	204.000000
836.772888	197.000000
836.807251	199.000000
836.841675	209.000000
836.876038	194.000000
836.910461	200.000000
836.944763	205.000000
836.979187	202.000000
837.013611	205.000000
837.047974	199.000000
837.082336	213.000000
837.116699	204.000000
837.151062	197.000000
837.185486	193.000000
837.219849	198.000000
837.254211	209.000000
837.288574	198.000000
837.322937	192.000000
837.357300	188.000000
837.391663	215.000000
837.426086	205.000000
837.460388	202.000000
837.494751	210.000000
837.529114	201.000000
837.563477	209.000000
837.597839	208.000000
837.632141	200.000000
837.666565	201.000000
837.700928	206.000000
837.735229	210.000000
837.769592	207.000000
837.803955	208.000000
837.838257	196.000000
837.872620	200.000000
837.906982	213.000000
837.941284	204.000000
837.975647	202.000000
838.010010	213.000000
838.044312	201.000000
838.078674	193.000000
838.112976	205.000000
838.147339	202.000000
838.181702	206.000000
838.216003	211.000000
838.250366	202.000000
838.284668	204.000000
838.318970	198.000000
838.353333	197.000000
838.387634	201.000000
838.421936	203.000000
838.456299	209.000000
838.490601	212.000000
838.524902	209.000000
838.559265	203.000000
838.593567	212.000000
838.627869	194.000000
838.662170	202.000000
838.696472	190.000000
838.730774	199.000000
838.765137	206.000000
838.799377	191.000000
838.833740	205.000000
838.868042	214.000000
838.902283	193.000000
838.936646	210.000000
838.970947	201.000000
839.005188	207.000000
839.039551	194.000000
839.073792	210.000000
839.108093	202.000000
839.142395	213.000000
839.176697	189.000000
839.210937	207.000000
839.245300	217.000000
839.279541	197.000000
839.313843	202.000000
839.348145	205.000000
839.382385	204.000000
839.416687	209.000000
839.450989	204.000000
839.485229	202.000000
839.519531	200.000000
839.553833	208.000000
839.588013	202.000000
839.622314	203.000000
839.656555	208.000000
839.690857	198.000000
839.725159	197.000000
839.759460	199.000000
839.793640	199.000000
839.827942	200.000000
839.862183	195.000000
839.896423	200.000000
839.930725	211.000000
839.964966	208.000000
839.999207	212.000000
840.033508	210.000000
840.067688	200.000000
840.101990	207.000000
840.136230	202.000000
840.170471	210.000000
840.204712	197.000000
840.238953	197.000000
840.273193	206.000000
840.307434	201.000000
840.341736	198.000000
840.375916	198.000000
840.410217	197.000000
840.444397	205.000000
840.478638	207.000000
840.512878	207.000000
840.547119	208.000000
840.581360	207.000000
840.615601	211.000000
840.649780	213.000000
840.684021	205.000000
840.718262	209.000000
840.752441	207.000000
840.786682	206.000000
840.820862	207.000000
840.855103	213.000000
840.889343	204.000000
840.923584	204.000000
840.957764	204.000000
840.992004	208.000000
841.026184	212.000000
841.060425	203.000000
841.094666	196.000000
841.128845	212.000000
841.163025	199.000000
841.197266	208.000000
841.231445	197.000000
841.265686	207.000000
841.299866	195.000000
841.334045	208.000000
841.368286	197.000000
841.402405	215.000000
841.436646	204.000000
841.470825	202.000000
841.505005	204.000000
841.539185	199.000000
841.573425	199.000000
841.607544	205.000000
841.641785	202.000000
841.675964	197.000000
841.710144	203.000000
841.744324	198.000000
841.778503	200.000000
841.812683	201.000000
841.846863	209.000000
841.881042	210.000000
841.915222	202.000000
841.949402	217.000000
841.983521	194.000000
842.017700	206.000000
842.051880	205.000000
842.086060	207.000000
842.120239	204.000000
842.154419	200.000000
842.188538	209.000000
842.222717	197.000000
842.256897	216.000000
842.291016	202.000000
842.325195	205.000000
842.359375	212.000000
842.393494	215.000000
842.427673	204.000000
842.461853	210.000000
842.495911	207.000000
842.530090	208.000000
842.564209	197.000000
842.598389	203.000000
842.632568	203.000000
842.666626	203.000000
842.700806	197.000000
842.734985	202.000000
842.769043	203.000000
842.803223	205.000000
842.837402	202.000000
842.871460	202.000000
842.905640	208.000000
842.939697	199.000000
842.973877	199.000000
843.007996	209.000000
843.042175	211.000000
843.076233	198.000000
843.110413	205.000000
843.144470	219.000000
843.178589	205.000000
843.212769	200.000000
843.246826	209.000000
843.280945	201.000000
843.315125	204.000000
843.349182	201.000000
843.383301	209.000000
843.417419	218.000000
843.451538	204.000000
843.485657	204.000000
843.519714	204.000000
843.553833	205.000000
843.587952	201.000000
843.622070	196.000000
843.656128	208.000000
843.690247	201.000000
843.724304	204.000000
843.758423	207.000000
843.792542	201.000000
843.826599	204.000000
843.860718	200.000000
843.894836	193.000000
843.928894	207.000000
843.963013	203.000000
843.997070	199.000000
844.031128	197.000000
844.065247	208.000000
844.099304	205.000000
844.133362	206.000000
844.167480	207.000000
844.201599	211.000000
844.235596	204.000000
844.269714	204.000000
844.303711	205.000000
844.337830	195.000000
844.371948	209.000000
844.405945	201.000000
844.440063	196.000000
844.474121	220.000000
844.508118	197.000000
844.542236	203.000000
844.576294	203.000000
844.610352	197.000000
844.644409	199.000000
844.678406	196.000000
844.712524	204.000000
844.746582	216.000000
844.780640	203.000000
844.814636	203.000000
844.848755	216.000000
844.882751	201.000000
844.916809	210.000000
844.950867	206.000000
844.984863	214.000000
845.018921	202.000000
845.052979	204.000000
845.086975	203.000000
845.121033	195.000000
845.155090	198.000000
845.189087	215.000000
845.223145	198.000000
845.257141	206.000000
845.291199	204.000000
845.325256	214.000000
845.359253	206.000000
845.393250	215.000000
845.427307	201.000000
845.461304	207.000000
845.495361	202.000000
845.529358	213.000000
845.563354	198.000000
845.597412	197.000000
845.631409	203.000000
845.665405	213.000000
845.699463	205.000000
845.733459	196.000000
845.767456	206.000000
845.801453	204.000000
845.835449	207.000000
845.869446	210.000000
845.903503	208.000000
845.937439	198.000000
845.971497	211.000000
846.005493	199.000000
846.039429	203.000000
846.073486	215.000000
846.107483	202.000000
846.141418	202.000000
846.175476	206.000000
846.209473	213.000000
846.243408	199.000000
846.277405	204.000000
846.311401	199.000000
846.345337	203.000000
846.379395	210.000000
846.413330	198.000000
846.447327	210.000000
846.481323	199.000000
846.515259	205.000000
846.549255	204.000000
846.583252	206.000000
846.617187	199.000000
846.651184	206.000000
846.685120	202.000000
846.719055	214.000000
846.753052	205.000000
846.786987	210.000000
846.820984	195.000000
846.854980	207.000000
846.888916	196.000000
846.922852	206.000000
846.956848	212.000000
846.990723	200.000000
847.024719	201.000000
847.058716	203.000000
847.092590	208.000000
847.126587	208.000000
847.160522	201.000000
847.194458	214.000000
847.228455	199.000000
847.262390	197.000000
847.296265	202.000000
847.330261	212.000000
847.364136	203.000000
847.398132	203.000000
847.432068	205.000000
847.466003	201.000000
847.499939	204.000000
847.533875	208.000000
847.567749	203.000000
847.601746	203.000000
847.635681	210.000000
847.669556	195.000000
847.703491	213.000000
847.737427	219.000000
847.771301	198.000000
847.805237	205.000000
847.839233	206.000000
847.873108	204.000000
847.907043	205.000000
847.940918	211.000000
847.974854	208.000000
848.008789	206.000000
848.042664	205.000000
848.076538	205.000000
848.110474	209.000000
848.144348	205.000000
848.178284	198.000000
848.212219	202.000000
848.246094	202.000000
848.279968	204.000000
848.313904	208.000000
848.347778	203.000000
848.381653	202.000000
848.415588	197.000000
848.449463	202.000000
848.483337	200.000000
848.517212	211.000000
848.551086	205.000000
848.585022	198.000000
848.618835	215.000000
848.652771	204.000000
848.686646	195.000000
848.720520	215.000000
848.754395	202.000000
848.788330	210.000000
848.822144	210.000000
848.856018	204.000000
848.889954	208.000000
848.923767	199.000000
848.957642	203.000000
848.991577	207.000000
849.025391	201.000000
849.059265	203.000000
849.093079	198.000000
849.126953	198.000000
849.160828	215.000000
849.194641	205.000000
849.228577	201.000000
849.262451	207.000000
849.296265	203.000000
849.330139	196.000000
849.364014	206.000000
849.397827	200.000000
849.431702	206.000000
849.465515	205.000000
849.499329	195.000000
849.533203	195.000000
849.567078	194.000000
849.600891	205.000000
849.634766	201.000000
849.668518	205.000000
849.702393	205.000000
849.736267	193.000000
849.770020	219.000000
849.803894	205.000000
849.837769	203.000000
849.871521	204.000000
849.905396	210.000000
849.939270	197.000000
849.973022	202.000000
850.006897	207.000000
850.040710	207.000000
850.074524	206.000000
850.108337	201.000000
850.142151	207.000000
850.175964	209.000000
850.209778	199.000000
850.243530	192.000000
850.277405	207.000000
850.311218	206.000000
850.344971	200.000000
850.378845	216.000000
850.412659	196.000000
850.446411	205.000000
850.480225	203.000000
850.514038	210.000000
850.547791	207.000000
850.581665	206.000000
850.615417	201.000000
850.649231	206.000000
850.683044	205.000000
850.716858	204.000000
850.750610	205.000000
850.784424	207.000000
850.818176	201.000000
850.851929	200.000000
850.885742	204.000000
850.919495	198.000000
850.953308	209.000000
850.987122	215.000000
851.020874	201.000000
851.054626	195.000000
851.088440	206.000000
851.122192	205.000000
851.156006	205.000000
851.189697	199.000000
851.223511	198.000000
851.257263	205.000000
851.291077	206.000000
851.324829	196.000000
851.358582	201.000000
851.392334	199.000000
851.426086	203.000000
851.459900	210.000000
851.493591	205.000000
851.527344	199.000000
851.561157	206.000000
851.594849	207.000000
851.628662	203.000000
851.662415	210.000000
851.696106	209.000000
851.729858	208.000000
851.763611	199.000000
851.797363	208.000000
851.831116	198.000000
851.864868	208.000000
851.898560	207.000000
851.932312	196.000000
851.966064	204.000000
851.999817	205.000000
852.033569	205.000000
852.067261	209.000000
852.101013	204.000000
852.134766	205.000000
852.168457	192.000000
852.202209	210.000000
852.235901	195.000000
852.269592	212.000000
852.303345	208.000000
852.337036	209.000000
852.370789	206.000000
852.404541	208.000000
852.438171	198.000000
852.471924	206.000000
852.505676	197.000000
852.539307	210.000000
852.573059	202.000000
852.606812	200.000000
852.640442	198.000000
852.674194	209.000000
852.707886	218.000000
852.741577	212.000000
852.775269	195.000000
852.809021	205.000000
852.842651	200.000000
852.876404	211.000000
852.910034	205.000000
852.943787	207.000000
852.977478	206.000000
853.011108	202.000000
853.044861	201.000000
853.078552	215.000000
853.112183	207.000000
853.145874	209.000000
853.179626	196.000000
853.213257	203.000000
853.246948	201.000000
853.280640	212.000000
853.314270	203.000000
853.347961	208.000000
853.381653	206.000000
853.415283	206.000000
853.448975	198.000000
853.482605	205.000000
853.516296	205.000000
853.549988	195.000000
853.583618	203.000000
853.617310	205.000000
853.651001	205.000000
853.684631	198.000000
853.718323	201.000000
853.751953	208.000000
853.785583	195.000000
853.819275	211.000000
853.852966	204.000000
853.886536	195.000000
853.920227	195.000000
853.953918	201.000000
853.987488	198.000000
854.021179	206.000000
854.054749	209.000000
854.088440	205.000000
854.122131	198.000000
854.155701	204.000000
854.189331	201.000000
854.223022	206.000000
854.256592	204.000000
854.290283	198.000000
854.323914	209.000000
854.357483	200.000000
854.391174	208.000000
854.424744	221.000000
854.458374	204.000000
854.492065	216.000000
854.525696	204.000000
854.559265	208.000000
854.592896	213.000000
854.626465	204.000000
854.660095	203.000000
854.693787	206.000000
854.727356	203.000000
854.760986	208.000000
854.794617	201.000000
854.828186	204.000000
854.861816	207.000000
854.895447	202.000000
854.929016	203.000000
854.962585	205.000000
854.996155	209.000000
855.029785	210.000000
855.063416	204.000000
855.097046	215.000000
855.130615	200.000000
855.164185	208.000000
855.197754	202.000000
855.231384	211.000000
855.264954	197.000000
855.298523	207.000000
855.332153	203.000000
855.365723	213.000000
855.399292	201.000000
855.432922	203.000000
855.466492	201.000000
855.500061	199.000000
855.533630	197.000000
855.567200	203.000000
855.600769	209.000000
855.634338	206.000000
855.667969	203.000000
855.701477	203.000000
855.735046	199.000000
855.768616	194.000000
855.802185	207.000000
855.835754	219.000000
855.869324	196.000000
855.902893	198.000000
855.936401	213.000000
855.969971	208.000000
856.003540	198.000000
856.037109	207.000000
856.070618	204.000000
856.104187	198.000000
856.137695	203.000000
856.171265	193.000000
856.204834	204.000000
856.238403	211.000000
856.271912	198.000000
856.305481	204.000000
856.338989	200.000000
856.372559	205.000000
856.406128	208.000000
856.439636	207.000000
856.473145	201.000000
856.506653	209.000000
856.540222	207.000000
856.573792	212.000000
856.607300	205.000000
856.640808	198.000000
856.674377	205.000000
856.707825	229.000000
856.741394	208.000000
856.774902	196.000000
856.808472	190.000000
856.841980	205.000000
856.875488	210.000000
856.908936	198.000000
856.942505	205.000000
856.976013	197.000000
857.009521	200.000000
857.043030	205.000000
857.076477	202.000000
857.110046	207.000000
857.143555	201.000000
857.177063	207.000000
857.210571	203.000000
857.244080	200.000000
857.277527	212.000000
857.311035	202.000000
857.344543	210.000000
857.378052	204.000000
857.411499	208.000000
857.445068	222.000000
857.478516	206.000000
857.512024	200.000000
857.545532	201.000000
857.578979	207.000000
857.612427	201.000000
857.645874	199.000000
857.679382	206.000000
857.712891	207.000000
857.746399	203.000000
857.779846	207.000000
857.813354	210.000000
857.846741	204.000000
857.880249	196.000000
857.913757	209.000000
857.947266	202.000000
857.980652	201.000000
858.014160	200.000000
858.047546	204.000000
858.081055	203.000000
858.114563	213.000000
858.147949	198.000000
858.181458	206.000000
858.214844	203.000000
858.248352	195.000000
858.281799	208.000000
858.315308	218.000000
858.348694	208.000000
858.382141	212.000000
858.415588	206.000000
858.449036	212.000000
858.482483	205.000000
858.515930	201.000000
858.549377	206.000000
858.582825	212.000000
858.616211	206.000000
858.649658	209.000000
858.683105	198.000000
858.716553	201.000000
858.750000	200.000000
858.783386	202.000000
858.816833	193.000000
858.850281	206.000000
858.883728	206.000000
858.917114	201.000000
858.950562	214.000000
858.983948	217.000000
859.017395	213.000000
859.050781	203.000000
859.084167	199.000000
859.117615	200.000000
859.151062	208.000000
859.184448	198.000000
859.217834	203.000000
859.251282	198.000000
859.284668	198.000000
859.318054	191.000000
859.351440	198.000000
859.384888	211.000000
859.418274	194.000000
859.451721	194.000000
859.485046	205.000000
859.518494	201.000000
859.551819	200.000000
859.585266	205.000000
859.618652	209.000000
859.652039	198.000000
859.685425	200.000000
859.718811	194.000000
859.752197	195.000000
859.785583	206.000000
859.819031	220.000000
859.852356	211.000000
859.885742	201.000000
859.919067	210.000000
859.952454	203.000000
859.985901	205.000000
860.019287	203.000000
860.052612	0.000000
860.085999	0.000000
860.119324	0.000000
860.152710	0.000000
860.186096	0.000000
860.219421	0.000000
860.252808	0.000000
860.286133	0.000000
860.319519	0.000000
860.352905	0.000000
860.386292	0.000000
860.419617	0.000000
860.452942	0.000000
860.486267	0.000000
860.519653	0.000000
860.553040	0.000000
860.586365	0.000000
860.619690	0.000000
860.653076	0.000000
860.686340	0.000000
860.719727	0.000000
860.753113	0.000000
860.786377	0.000000
860.819763	0.000000
860.853027	0.000000
860.886414	0.000000
860.919739	0.000000
860.953125	0.000000
860.986389	0.000000
861.019714	0.000000
861.053040	0.000000
861.086365	0.000000
861.119690	0.000000
861.153076	0.000000
861.186340	0.000000
861.219666	0.000000
861.252930	0.000000
861.286316	0.000000
861.319641	0.000000
861.352905	0.000000
861.386230	0.000000
861.419495	0.000000
861.452820	0.000000
861.486145	0.000000
861.519470	0.000000
861.552734	0.000000
861.586060	0.000000
861.619324	0.000000
861.652649	0.000000
861.685974	0.000000
861.719238	0.000000
861.752563	0.000000
861.785828	0.000000
861.819092	0.000000
861.852417	0.000000
861.885742	0.000000
861.918945	0.000000
861.952271	0.000000
861.985535	0.000000
862.018799	0.000000
862.052124	0.000000
862.085449	0.000000
862.118652	0.000000
862.151978	0.000000
862.185181	0.000000
862.218506	0.000000
862.251770	0.000000
862.285034	0.000000
862.318298	0.000000
862.351562	0.000000
862.384827	0.000000
862.418091	0.000000
862.451355	0.000000
862.484619	0.000000
862.517883	0.000000
862.551086	0.000000
862.584351	0.000000
862.617676	0.000000
862.650940	0.000000
862.684143	0.000000
862.717407	0.000000
862.750610	0.000000
862.783875	0.000000
862.817139	0.000000
862.850342	0.000000
862.883606	0.000000
862.916870	0.000000
862.950073	0.000000
862.983337	0.000000
863.016602	0.000000
863.049805	0.000000
863.083069	0.000000
863.116211	0.000000
863.149475	0.000000
863.182739	0.000000
863.216003	0.000000
863.249146	0.000000
863.282410	0.000000
863.315613	0.000000
863.348816	0.000000
863.382080	0.000000
863.415222	0.000000
863.448486	0.000000
863.481689	0.000000
863.514893	0.000000
863.548157	0.000000
863.581360	0.000000
863.614502	0.000000
863.647766	0.000000
863.680908	0.000000
863.714172	0.000000
863.747375	0.000000
863.780579	0.000000
863.813721	0.000000
863.846985	0.000000
863.880127	0.000000
863.913330	0.000000
863.946533	0.000000
863.979675	0.000000
864.012939	0.000000
